# E (eV)   ldos(E)   pdos(E)   
  -6.113  0.307E-04  0.307E-04
  -6.103  0.479E-04  0.479E-04
  -6.093  0.740E-04  0.740E-04
  -6.083  0.113E-03  0.113E-03
  -6.073  0.171E-03  0.171E-03
  -6.063  0.255E-03  0.255E-03
  -6.053  0.378E-03  0.378E-03
  -6.043  0.553E-03  0.553E-03
  -6.033  0.801E-03  0.801E-03
  -6.023  0.115E-02  0.115E-02
  -6.013  0.163E-02  0.163E-02
  -6.003  0.229E-02  0.229E-02
  -5.993  0.318E-02  0.318E-02
  -5.983  0.437E-02  0.437E-02
  -5.973  0.595E-02  0.595E-02
  -5.963  0.802E-02  0.802E-02
  -5.953  0.107E-01  0.107E-01
  -5.943  0.141E-01  0.141E-01
  -5.933  0.184E-01  0.184E-01
  -5.923  0.238E-01  0.238E-01
  -5.913  0.305E-01  0.305E-01
  -5.903  0.386E-01  0.386E-01
  -5.893  0.483E-01  0.483E-01
  -5.883  0.600E-01  0.600E-01
  -5.873  0.737E-01  0.737E-01
  -5.863  0.896E-01  0.896E-01
  -5.853  0.108E+00  0.108E+00
  -5.843  0.129E+00  0.129E+00
  -5.833  0.152E+00  0.152E+00
  -5.823  0.177E+00  0.177E+00
  -5.813  0.205E+00  0.205E+00
  -5.803  0.235E+00  0.235E+00
  -5.793  0.267E+00  0.267E+00
  -5.783  0.300E+00  0.300E+00
  -5.773  0.334E+00  0.334E+00
  -5.763  0.369E+00  0.369E+00
  -5.753  0.404E+00  0.404E+00
  -5.743  0.438E+00  0.438E+00
  -5.733  0.470E+00  0.470E+00
  -5.723  0.501E+00  0.501E+00
  -5.713  0.529E+00  0.529E+00
  -5.703  0.555E+00  0.555E+00
  -5.693  0.577E+00  0.577E+00
  -5.683  0.595E+00  0.595E+00
  -5.673  0.609E+00  0.609E+00
  -5.663  0.620E+00  0.620E+00
  -5.653  0.626E+00  0.626E+00
  -5.643  0.628E+00  0.628E+00
  -5.633  0.627E+00  0.627E+00
  -5.623  0.621E+00  0.621E+00
  -5.613  0.613E+00  0.613E+00
  -5.603  0.602E+00  0.602E+00
  -5.593  0.588E+00  0.588E+00
  -5.583  0.573E+00  0.573E+00
  -5.573  0.556E+00  0.556E+00
  -5.563  0.538E+00  0.538E+00
  -5.553  0.519E+00  0.519E+00
  -5.543  0.500E+00  0.500E+00
  -5.533  0.481E+00  0.481E+00
  -5.523  0.463E+00  0.463E+00
  -5.513  0.445E+00  0.445E+00
  -5.503  0.429E+00  0.429E+00
  -5.493  0.413E+00  0.413E+00
  -5.483  0.398E+00  0.398E+00
  -5.473  0.385E+00  0.385E+00
  -5.463  0.373E+00  0.373E+00
  -5.453  0.362E+00  0.362E+00
  -5.443  0.352E+00  0.352E+00
  -5.433  0.343E+00  0.343E+00
  -5.423  0.335E+00  0.335E+00
  -5.413  0.327E+00  0.327E+00
  -5.403  0.320E+00  0.320E+00
  -5.393  0.314E+00  0.314E+00
  -5.383  0.307E+00  0.307E+00
  -5.373  0.301E+00  0.301E+00
  -5.363  0.295E+00  0.295E+00
  -5.353  0.288E+00  0.288E+00
  -5.343  0.282E+00  0.282E+00
  -5.333  0.275E+00  0.275E+00
  -5.323  0.268E+00  0.268E+00
  -5.313  0.262E+00  0.262E+00
  -5.303  0.255E+00  0.255E+00
  -5.293  0.248E+00  0.248E+00
  -5.283  0.242E+00  0.242E+00
  -5.273  0.236E+00  0.236E+00
  -5.263  0.230E+00  0.230E+00
  -5.253  0.225E+00  0.225E+00
  -5.243  0.220E+00  0.220E+00
  -5.233  0.217E+00  0.217E+00
  -5.223  0.213E+00  0.213E+00
  -5.213  0.211E+00  0.211E+00
  -5.203  0.209E+00  0.209E+00
  -5.193  0.208E+00  0.208E+00
  -5.183  0.207E+00  0.207E+00
  -5.173  0.207E+00  0.207E+00
  -5.163  0.207E+00  0.207E+00
  -5.153  0.208E+00  0.208E+00
  -5.143  0.209E+00  0.209E+00
  -5.133  0.210E+00  0.210E+00
  -5.123  0.210E+00  0.210E+00
  -5.113  0.211E+00  0.211E+00
  -5.103  0.211E+00  0.211E+00
  -5.093  0.211E+00  0.211E+00
  -5.083  0.210E+00  0.210E+00
  -5.073  0.209E+00  0.209E+00
  -5.063  0.207E+00  0.207E+00
  -5.053  0.204E+00  0.204E+00
  -5.043  0.200E+00  0.200E+00
  -5.033  0.196E+00  0.196E+00
  -5.023  0.191E+00  0.191E+00
  -5.013  0.186E+00  0.186E+00
  -5.003  0.180E+00  0.180E+00
  -4.993  0.174E+00  0.174E+00
  -4.983  0.168E+00  0.168E+00
  -4.973  0.162E+00  0.162E+00
  -4.963  0.156E+00  0.156E+00
  -4.953  0.150E+00  0.150E+00
  -4.943  0.145E+00  0.145E+00
  -4.933  0.141E+00  0.141E+00
  -4.923  0.137E+00  0.137E+00
  -4.913  0.134E+00  0.134E+00
  -4.903  0.132E+00  0.132E+00
  -4.893  0.131E+00  0.131E+00
  -4.883  0.131E+00  0.131E+00
  -4.873  0.132E+00  0.132E+00
  -4.863  0.135E+00  0.135E+00
  -4.853  0.138E+00  0.138E+00
  -4.843  0.141E+00  0.141E+00
  -4.833  0.146E+00  0.146E+00
  -4.823  0.151E+00  0.151E+00
  -4.813  0.156E+00  0.156E+00
  -4.803  0.161E+00  0.161E+00
  -4.793  0.166E+00  0.166E+00
  -4.783  0.171E+00  0.171E+00
  -4.773  0.175E+00  0.175E+00
  -4.763  0.179E+00  0.179E+00
  -4.753  0.182E+00  0.182E+00
  -4.743  0.184E+00  0.184E+00
  -4.733  0.184E+00  0.184E+00
  -4.723  0.184E+00  0.184E+00
  -4.713  0.182E+00  0.182E+00
  -4.703  0.179E+00  0.179E+00
  -4.693  0.175E+00  0.175E+00
  -4.683  0.170E+00  0.170E+00
  -4.673  0.163E+00  0.163E+00
  -4.663  0.156E+00  0.156E+00
  -4.653  0.148E+00  0.148E+00
  -4.643  0.140E+00  0.140E+00
  -4.633  0.131E+00  0.131E+00
  -4.623  0.123E+00  0.123E+00
  -4.613  0.114E+00  0.114E+00
  -4.603  0.106E+00  0.106E+00
  -4.593  0.989E-01  0.989E-01
  -4.583  0.923E-01  0.923E-01
  -4.573  0.867E-01  0.867E-01
  -4.563  0.822E-01  0.822E-01
  -4.553  0.790E-01  0.790E-01
  -4.543  0.771E-01  0.771E-01
  -4.533  0.766E-01  0.766E-01
  -4.523  0.775E-01  0.775E-01
  -4.513  0.797E-01  0.797E-01
  -4.503  0.832E-01  0.832E-01
  -4.493  0.879E-01  0.879E-01
  -4.483  0.937E-01  0.937E-01
  -4.473  0.100E+00  0.100E+00
  -4.463  0.108E+00  0.108E+00
  -4.453  0.116E+00  0.116E+00
  -4.443  0.124E+00  0.124E+00
  -4.433  0.133E+00  0.133E+00
  -4.423  0.142E+00  0.142E+00
  -4.413  0.150E+00  0.150E+00
  -4.403  0.157E+00  0.157E+00
  -4.393  0.164E+00  0.164E+00
  -4.383  0.170E+00  0.170E+00
  -4.373  0.175E+00  0.175E+00
  -4.363  0.178E+00  0.178E+00
  -4.353  0.180E+00  0.180E+00
  -4.343  0.181E+00  0.181E+00
  -4.333  0.180E+00  0.180E+00
  -4.323  0.177E+00  0.177E+00
  -4.313  0.173E+00  0.173E+00
  -4.303  0.168E+00  0.168E+00
  -4.293  0.161E+00  0.161E+00
  -4.283  0.153E+00  0.153E+00
  -4.273  0.145E+00  0.145E+00
  -4.263  0.135E+00  0.135E+00
  -4.253  0.125E+00  0.125E+00
  -4.243  0.115E+00  0.115E+00
  -4.233  0.105E+00  0.105E+00
  -4.223  0.949E-01  0.949E-01
  -4.213  0.853E-01  0.853E-01
  -4.203  0.763E-01  0.763E-01
  -4.193  0.680E-01  0.680E-01
  -4.183  0.608E-01  0.608E-01
  -4.173  0.545E-01  0.545E-01
  -4.163  0.495E-01  0.495E-01
  -4.153  0.457E-01  0.457E-01
  -4.143  0.433E-01  0.433E-01
  -4.133  0.422E-01  0.422E-01
  -4.123  0.424E-01  0.424E-01
  -4.113  0.441E-01  0.441E-01
  -4.103  0.472E-01  0.472E-01
  -4.093  0.515E-01  0.515E-01
  -4.083  0.572E-01  0.572E-01
  -4.073  0.641E-01  0.641E-01
  -4.063  0.720E-01  0.720E-01
  -4.053  0.810E-01  0.810E-01
  -4.043  0.907E-01  0.907E-01
  -4.033  0.101E+00  0.101E+00
  -4.023  0.112E+00  0.112E+00
  -4.013  0.123E+00  0.123E+00
  -4.003  0.133E+00  0.133E+00
  -3.993  0.144E+00  0.144E+00
  -3.983  0.154E+00  0.154E+00
  -3.973  0.163E+00  0.163E+00
  -3.963  0.171E+00  0.171E+00
  -3.953  0.177E+00  0.177E+00
  -3.943  0.182E+00  0.182E+00
  -3.933  0.185E+00  0.185E+00
  -3.923  0.186E+00  0.186E+00
  -3.913  0.186E+00  0.186E+00
  -3.903  0.184E+00  0.184E+00
  -3.893  0.180E+00  0.180E+00
  -3.883  0.174E+00  0.174E+00
  -3.873  0.167E+00  0.167E+00
  -3.863  0.159E+00  0.159E+00
  -3.853  0.149E+00  0.149E+00
  -3.843  0.139E+00  0.139E+00
  -3.833  0.128E+00  0.128E+00
  -3.823  0.117E+00  0.117E+00
  -3.813  0.106E+00  0.106E+00
  -3.803  0.954E-01  0.954E-01
  -3.793  0.850E-01  0.850E-01
  -3.783  0.752E-01  0.752E-01
  -3.773  0.663E-01  0.663E-01
  -3.763  0.582E-01  0.582E-01
  -3.753  0.512E-01  0.512E-01
  -3.743  0.453E-01  0.453E-01
  -3.733  0.406E-01  0.406E-01
  -3.723  0.372E-01  0.372E-01
  -3.713  0.350E-01  0.350E-01
  -3.703  0.341E-01  0.341E-01
  -3.693  0.345E-01  0.345E-01
  -3.683  0.362E-01  0.362E-01
  -3.673  0.392E-01  0.392E-01
  -3.663  0.434E-01  0.434E-01
  -3.653  0.489E-01  0.489E-01
  -3.643  0.556E-01  0.556E-01
  -3.633  0.634E-01  0.634E-01
  -3.623  0.722E-01  0.722E-01
  -3.613  0.818E-01  0.818E-01
  -3.603  0.923E-01  0.923E-01
  -3.593  0.103E+00  0.103E+00
  -3.583  0.115E+00  0.115E+00
  -3.573  0.127E+00  0.127E+00
  -3.563  0.138E+00  0.138E+00
  -3.553  0.150E+00  0.150E+00
  -3.543  0.161E+00  0.161E+00
  -3.533  0.171E+00  0.171E+00
  -3.523  0.180E+00  0.180E+00
  -3.513  0.189E+00  0.189E+00
  -3.503  0.196E+00  0.196E+00
  -3.493  0.202E+00  0.202E+00
  -3.483  0.206E+00  0.206E+00
  -3.473  0.209E+00  0.209E+00
  -3.463  0.211E+00  0.211E+00
  -3.453  0.211E+00  0.211E+00
  -3.443  0.210E+00  0.210E+00
  -3.433  0.207E+00  0.207E+00
  -3.423  0.204E+00  0.204E+00
  -3.413  0.199E+00  0.199E+00
  -3.403  0.193E+00  0.193E+00
  -3.393  0.187E+00  0.187E+00
  -3.383  0.180E+00  0.180E+00
  -3.373  0.172E+00  0.172E+00
  -3.363  0.164E+00  0.164E+00
  -3.353  0.155E+00  0.155E+00
  -3.343  0.147E+00  0.147E+00
  -3.333  0.138E+00  0.138E+00
  -3.323  0.129E+00  0.129E+00
  -3.313  0.120E+00  0.120E+00
  -3.303  0.111E+00  0.111E+00
  -3.293  0.103E+00  0.103E+00
  -3.283  0.947E-01  0.947E-01
  -3.273  0.870E-01  0.870E-01
  -3.263  0.799E-01  0.799E-01
  -3.253  0.733E-01  0.733E-01
  -3.243  0.675E-01  0.675E-01
  -3.233  0.625E-01  0.625E-01
  -3.223  0.582E-01  0.582E-01
  -3.213  0.548E-01  0.548E-01
  -3.203  0.522E-01  0.522E-01
  -3.193  0.505E-01  0.505E-01
  -3.183  0.495E-01  0.495E-01
  -3.173  0.494E-01  0.494E-01
  -3.163  0.499E-01  0.499E-01
  -3.153  0.510E-01  0.510E-01
  -3.143  0.526E-01  0.526E-01
  -3.133  0.546E-01  0.546E-01
  -3.123  0.568E-01  0.568E-01
  -3.113  0.591E-01  0.591E-01
  -3.103  0.615E-01  0.615E-01
  -3.093  0.637E-01  0.637E-01
  -3.083  0.657E-01  0.657E-01
  -3.073  0.675E-01  0.675E-01
  -3.063  0.690E-01  0.690E-01
  -3.053  0.701E-01  0.701E-01
  -3.043  0.708E-01  0.708E-01
  -3.033  0.712E-01  0.712E-01
  -3.023  0.713E-01  0.713E-01
  -3.013  0.712E-01  0.712E-01
  -3.003  0.708E-01  0.708E-01
  -2.993  0.704E-01  0.704E-01
  -2.983  0.698E-01  0.698E-01
  -2.973  0.693E-01  0.693E-01
  -2.963  0.688E-01  0.688E-01
  -2.953  0.685E-01  0.685E-01
  -2.943  0.682E-01  0.682E-01
  -2.933  0.680E-01  0.680E-01
  -2.923  0.679E-01  0.679E-01
  -2.913  0.679E-01  0.679E-01
  -2.903  0.678E-01  0.678E-01
  -2.893  0.678E-01  0.678E-01
  -2.883  0.677E-01  0.677E-01
  -2.873  0.675E-01  0.675E-01
  -2.863  0.672E-01  0.672E-01
  -2.853  0.667E-01  0.667E-01
  -2.843  0.660E-01  0.660E-01
  -2.833  0.652E-01  0.652E-01
  -2.823  0.642E-01  0.642E-01
  -2.813  0.632E-01  0.632E-01
  -2.803  0.621E-01  0.621E-01
  -2.793  0.611E-01  0.611E-01
  -2.783  0.602E-01  0.602E-01
  -2.773  0.594E-01  0.594E-01
  -2.763  0.589E-01  0.589E-01
  -2.753  0.586E-01  0.586E-01
  -2.743  0.586E-01  0.586E-01
  -2.733  0.589E-01  0.589E-01
  -2.723  0.595E-01  0.595E-01
  -2.713  0.603E-01  0.603E-01
  -2.703  0.613E-01  0.613E-01
  -2.693  0.625E-01  0.625E-01
  -2.683  0.636E-01  0.636E-01
  -2.673  0.647E-01  0.647E-01
  -2.663  0.656E-01  0.656E-01
  -2.653  0.663E-01  0.663E-01
  -2.643  0.666E-01  0.666E-01
  -2.633  0.664E-01  0.664E-01
  -2.623  0.658E-01  0.658E-01
  -2.613  0.647E-01  0.647E-01
  -2.603  0.631E-01  0.631E-01
  -2.593  0.610E-01  0.610E-01
  -2.583  0.584E-01  0.584E-01
  -2.573  0.555E-01  0.555E-01
  -2.563  0.521E-01  0.521E-01
  -2.553  0.486E-01  0.486E-01
  -2.543  0.449E-01  0.449E-01
  -2.533  0.411E-01  0.411E-01
  -2.523  0.375E-01  0.375E-01
  -2.513  0.339E-01  0.339E-01
  -2.503  0.307E-01  0.307E-01
  -2.493  0.278E-01  0.278E-01
  -2.483  0.253E-01  0.253E-01
  -2.473  0.234E-01  0.234E-01
  -2.463  0.221E-01  0.221E-01
  -2.453  0.215E-01  0.215E-01
  -2.443  0.217E-01  0.217E-01
  -2.433  0.227E-01  0.227E-01
  -2.423  0.247E-01  0.247E-01
  -2.413  0.276E-01  0.276E-01
  -2.403  0.315E-01  0.315E-01
  -2.393  0.365E-01  0.365E-01
  -2.383  0.427E-01  0.427E-01
  -2.373  0.501E-01  0.501E-01
  -2.363  0.587E-01  0.587E-01
  -2.353  0.686E-01  0.686E-01
  -2.343  0.798E-01  0.798E-01
  -2.333  0.921E-01  0.921E-01
  -2.323  0.106E+00  0.106E+00
  -2.313  0.120E+00  0.120E+00
  -2.303  0.136E+00  0.136E+00
  -2.293  0.153E+00  0.153E+00
  -2.283  0.170E+00  0.170E+00
  -2.273  0.188E+00  0.188E+00
  -2.263  0.207E+00  0.207E+00
  -2.253  0.225E+00  0.225E+00
  -2.243  0.244E+00  0.244E+00
  -2.233  0.262E+00  0.262E+00
  -2.223  0.280E+00  0.280E+00
  -2.213  0.297E+00  0.297E+00
  -2.203  0.313E+00  0.313E+00
  -2.193  0.328E+00  0.328E+00
  -2.183  0.341E+00  0.341E+00
  -2.173  0.353E+00  0.353E+00
  -2.163  0.363E+00  0.363E+00
  -2.153  0.371E+00  0.371E+00
  -2.143  0.377E+00  0.377E+00
  -2.133  0.382E+00  0.382E+00
  -2.123  0.384E+00  0.384E+00
  -2.113  0.384E+00  0.384E+00
  -2.103  0.383E+00  0.383E+00
  -2.093  0.380E+00  0.380E+00
  -2.083  0.375E+00  0.375E+00
  -2.073  0.369E+00  0.369E+00
  -2.063  0.361E+00  0.361E+00
  -2.053  0.353E+00  0.353E+00
  -2.043  0.343E+00  0.343E+00
  -2.033  0.333E+00  0.333E+00
  -2.023  0.322E+00  0.322E+00
  -2.013  0.311E+00  0.311E+00
  -2.003  0.300E+00  0.300E+00
  -1.993  0.289E+00  0.289E+00
  -1.983  0.277E+00  0.277E+00
  -1.973  0.266E+00  0.266E+00
  -1.963  0.255E+00  0.255E+00
  -1.953  0.243E+00  0.243E+00
  -1.943  0.232E+00  0.232E+00
  -1.933  0.221E+00  0.221E+00
  -1.923  0.211E+00  0.211E+00
  -1.913  0.200E+00  0.200E+00
  -1.903  0.190E+00  0.190E+00
  -1.893  0.180E+00  0.180E+00
  -1.883  0.171E+00  0.171E+00
  -1.873  0.161E+00  0.161E+00
  -1.863  0.152E+00  0.152E+00
  -1.853  0.144E+00  0.144E+00
  -1.843  0.136E+00  0.136E+00
  -1.833  0.129E+00  0.129E+00
  -1.823  0.122E+00  0.122E+00
  -1.813  0.115E+00  0.115E+00
  -1.803  0.110E+00  0.110E+00
  -1.793  0.105E+00  0.105E+00
  -1.783  0.100E+00  0.100E+00
  -1.773  0.963E-01  0.963E-01
  -1.763  0.930E-01  0.930E-01
  -1.753  0.901E-01  0.901E-01
  -1.743  0.878E-01  0.878E-01
  -1.733  0.859E-01  0.859E-01
  -1.723  0.845E-01  0.845E-01
  -1.713  0.836E-01  0.836E-01
  -1.703  0.831E-01  0.831E-01
  -1.693  0.831E-01  0.831E-01
  -1.683  0.836E-01  0.836E-01
  -1.673  0.846E-01  0.846E-01
  -1.663  0.860E-01  0.860E-01
  -1.653  0.879E-01  0.879E-01
  -1.643  0.902E-01  0.902E-01
  -1.633  0.928E-01  0.928E-01
  -1.623  0.957E-01  0.957E-01
  -1.613  0.988E-01  0.988E-01
  -1.603  0.102E+00  0.102E+00
  -1.593  0.105E+00  0.105E+00
  -1.583  0.108E+00  0.108E+00
  -1.573  0.110E+00  0.110E+00
  -1.563  0.112E+00  0.112E+00
  -1.553  0.114E+00  0.114E+00
  -1.543  0.115E+00  0.115E+00
  -1.533  0.115E+00  0.115E+00
  -1.523  0.114E+00  0.114E+00
  -1.513  0.113E+00  0.113E+00
  -1.503  0.111E+00  0.111E+00
  -1.493  0.108E+00  0.108E+00
  -1.483  0.105E+00  0.105E+00
  -1.473  0.101E+00  0.101E+00
  -1.463  0.969E-01  0.969E-01
  -1.453  0.928E-01  0.928E-01
  -1.443  0.888E-01  0.888E-01
  -1.433  0.849E-01  0.849E-01
  -1.423  0.812E-01  0.812E-01
  -1.413  0.778E-01  0.778E-01
  -1.403  0.749E-01  0.749E-01
  -1.393  0.723E-01  0.723E-01
  -1.383  0.702E-01  0.702E-01
  -1.373  0.684E-01  0.684E-01
  -1.363  0.670E-01  0.670E-01
  -1.353  0.659E-01  0.659E-01
  -1.343  0.649E-01  0.649E-01
  -1.333  0.641E-01  0.641E-01
  -1.323  0.633E-01  0.633E-01
  -1.313  0.625E-01  0.625E-01
  -1.303  0.617E-01  0.617E-01
  -1.293  0.607E-01  0.607E-01
  -1.283  0.596E-01  0.596E-01
  -1.273  0.585E-01  0.585E-01
  -1.263  0.573E-01  0.573E-01
  -1.253  0.560E-01  0.560E-01
  -1.243  0.548E-01  0.548E-01
  -1.233  0.537E-01  0.537E-01
  -1.223  0.528E-01  0.528E-01
  -1.213  0.521E-01  0.521E-01
  -1.203  0.518E-01  0.518E-01
  -1.193  0.518E-01  0.518E-01
  -1.183  0.522E-01  0.522E-01
  -1.173  0.530E-01  0.530E-01
  -1.163  0.543E-01  0.543E-01
  -1.153  0.560E-01  0.560E-01
  -1.143  0.581E-01  0.581E-01
  -1.133  0.605E-01  0.605E-01
  -1.123  0.633E-01  0.633E-01
  -1.113  0.663E-01  0.663E-01
  -1.103  0.696E-01  0.696E-01
  -1.093  0.731E-01  0.731E-01
  -1.083  0.767E-01  0.767E-01
  -1.073  0.804E-01  0.804E-01
  -1.063  0.843E-01  0.843E-01
  -1.053  0.883E-01  0.883E-01
  -1.043  0.924E-01  0.924E-01
  -1.033  0.967E-01  0.967E-01
  -1.023  0.101E+00  0.101E+00
  -1.013  0.106E+00  0.106E+00
  -1.003  0.111E+00  0.111E+00
  -0.993  0.116E+00  0.116E+00
  -0.983  0.122E+00  0.122E+00
  -0.973  0.128E+00  0.128E+00
  -0.963  0.135E+00  0.135E+00
  -0.953  0.142E+00  0.142E+00
  -0.943  0.149E+00  0.149E+00
  -0.933  0.157E+00  0.157E+00
  -0.923  0.165E+00  0.165E+00
  -0.913  0.173E+00  0.173E+00
  -0.903  0.182E+00  0.182E+00
  -0.893  0.191E+00  0.191E+00
  -0.883  0.200E+00  0.200E+00
  -0.873  0.209E+00  0.209E+00
  -0.863  0.218E+00  0.218E+00
  -0.853  0.226E+00  0.226E+00
  -0.843  0.234E+00  0.234E+00
  -0.833  0.243E+00  0.243E+00
  -0.823  0.250E+00  0.250E+00
  -0.813  0.257E+00  0.257E+00
  -0.803  0.264E+00  0.264E+00
  -0.793  0.271E+00  0.271E+00
  -0.783  0.277E+00  0.277E+00
  -0.773  0.282E+00  0.282E+00
  -0.763  0.287E+00  0.287E+00
  -0.753  0.291E+00  0.291E+00
  -0.743  0.295E+00  0.295E+00
  -0.733  0.298E+00  0.298E+00
  -0.723  0.300E+00  0.300E+00
  -0.713  0.302E+00  0.302E+00
  -0.703  0.302E+00  0.302E+00
  -0.693  0.302E+00  0.302E+00
  -0.683  0.300E+00  0.300E+00
  -0.673  0.297E+00  0.297E+00
  -0.663  0.293E+00  0.293E+00
  -0.653  0.288E+00  0.288E+00
  -0.643  0.282E+00  0.282E+00
  -0.633  0.274E+00  0.274E+00
  -0.623  0.264E+00  0.264E+00
  -0.613  0.254E+00  0.254E+00
  -0.603  0.243E+00  0.243E+00
  -0.593  0.230E+00  0.230E+00
  -0.583  0.217E+00  0.217E+00
  -0.573  0.204E+00  0.204E+00
  -0.563  0.190E+00  0.190E+00
  -0.553  0.176E+00  0.176E+00
  -0.543  0.162E+00  0.162E+00
  -0.533  0.148E+00  0.148E+00
  -0.523  0.135E+00  0.135E+00
  -0.513  0.122E+00  0.122E+00
  -0.503  0.110E+00  0.110E+00
  -0.493  0.985E-01  0.985E-01
  -0.483  0.882E-01  0.882E-01
  -0.473  0.790E-01  0.790E-01
  -0.463  0.707E-01  0.707E-01
  -0.453  0.636E-01  0.636E-01
  -0.443  0.575E-01  0.575E-01
  -0.433  0.524E-01  0.524E-01
  -0.423  0.484E-01  0.484E-01
  -0.413  0.452E-01  0.452E-01
  -0.403  0.430E-01  0.430E-01
  -0.393  0.415E-01  0.415E-01
  -0.383  0.407E-01  0.407E-01
  -0.373  0.405E-01  0.405E-01
  -0.363  0.408E-01  0.408E-01
  -0.353  0.415E-01  0.415E-01
  -0.343  0.424E-01  0.424E-01
  -0.333  0.434E-01  0.434E-01
  -0.323  0.445E-01  0.445E-01
  -0.313  0.456E-01  0.456E-01
  -0.303  0.465E-01  0.465E-01
  -0.293  0.473E-01  0.473E-01
  -0.283  0.478E-01  0.478E-01
  -0.273  0.481E-01  0.481E-01
  -0.263  0.481E-01  0.481E-01
  -0.253  0.479E-01  0.479E-01
  -0.243  0.474E-01  0.474E-01
  -0.233  0.468E-01  0.468E-01
  -0.223  0.462E-01  0.462E-01
  -0.213  0.455E-01  0.455E-01
  -0.203  0.449E-01  0.449E-01
  -0.193  0.443E-01  0.443E-01
  -0.183  0.440E-01  0.440E-01
  -0.173  0.440E-01  0.440E-01
  -0.163  0.442E-01  0.442E-01
  -0.153  0.448E-01  0.448E-01
  -0.143  0.457E-01  0.457E-01
  -0.133  0.469E-01  0.469E-01
  -0.123  0.485E-01  0.485E-01
  -0.113  0.503E-01  0.503E-01
  -0.103  0.525E-01  0.525E-01
  -0.093  0.548E-01  0.548E-01
  -0.083  0.572E-01  0.572E-01
  -0.073  0.597E-01  0.597E-01
  -0.063  0.623E-01  0.623E-01
  -0.053  0.648E-01  0.648E-01
  -0.043  0.673E-01  0.673E-01
  -0.033  0.696E-01  0.696E-01
  -0.023  0.718E-01  0.718E-01
  -0.013  0.739E-01  0.739E-01
  -0.003  0.758E-01  0.758E-01
   0.007  0.776E-01  0.776E-01
   0.017  0.791E-01  0.791E-01
   0.027  0.805E-01  0.805E-01
   0.037  0.816E-01  0.816E-01
   0.047  0.826E-01  0.826E-01
   0.057  0.833E-01  0.833E-01
   0.067  0.837E-01  0.837E-01
   0.077  0.839E-01  0.839E-01
   0.087  0.837E-01  0.837E-01
   0.097  0.832E-01  0.832E-01
   0.107  0.822E-01  0.822E-01
   0.117  0.809E-01  0.809E-01
   0.127  0.791E-01  0.791E-01
   0.137  0.769E-01  0.769E-01
   0.147  0.742E-01  0.742E-01
   0.157  0.712E-01  0.712E-01
   0.167  0.677E-01  0.677E-01
   0.177  0.639E-01  0.639E-01
   0.187  0.598E-01  0.598E-01
   0.197  0.556E-01  0.556E-01
   0.207  0.511E-01  0.511E-01
   0.217  0.466E-01  0.466E-01
   0.227  0.422E-01  0.422E-01
   0.237  0.378E-01  0.378E-01
   0.247  0.335E-01  0.335E-01
   0.257  0.294E-01  0.294E-01
   0.267  0.256E-01  0.256E-01
   0.277  0.221E-01  0.221E-01
   0.287  0.189E-01  0.189E-01
   0.297  0.160E-01  0.160E-01
   0.307  0.134E-01  0.134E-01
   0.317  0.112E-01  0.112E-01
   0.327  0.928E-02  0.928E-02
   0.337  0.769E-02  0.769E-02
   0.347  0.640E-02  0.640E-02
   0.357  0.539E-02  0.539E-02
   0.367  0.464E-02  0.464E-02
   0.377  0.415E-02  0.415E-02
   0.387  0.390E-02  0.390E-02
   0.397  0.389E-02  0.389E-02
   0.407  0.410E-02  0.410E-02
   0.417  0.455E-02  0.455E-02
   0.427  0.523E-02  0.523E-02
   0.437  0.614E-02  0.614E-02
   0.447  0.731E-02  0.731E-02
   0.457  0.872E-02  0.872E-02
   0.467  0.104E-01  0.104E-01
   0.477  0.123E-01  0.123E-01
   0.487  0.145E-01  0.145E-01
   0.497  0.169E-01  0.169E-01
   0.507  0.196E-01  0.196E-01
   0.517  0.226E-01  0.226E-01
   0.527  0.257E-01  0.257E-01
   0.537  0.290E-01  0.290E-01
   0.547  0.325E-01  0.325E-01
   0.557  0.360E-01  0.360E-01
   0.567  0.396E-01  0.396E-01
   0.577  0.433E-01  0.433E-01
   0.587  0.469E-01  0.469E-01
   0.597  0.505E-01  0.505E-01
   0.607  0.539E-01  0.539E-01
   0.617  0.572E-01  0.572E-01
   0.627  0.602E-01  0.602E-01
   0.637  0.630E-01  0.630E-01
   0.647  0.656E-01  0.656E-01
   0.657  0.679E-01  0.679E-01
   0.667  0.699E-01  0.699E-01
   0.677  0.715E-01  0.715E-01
   0.687  0.728E-01  0.728E-01
   0.697  0.738E-01  0.738E-01
   0.707  0.744E-01  0.744E-01
   0.717  0.748E-01  0.748E-01
   0.727  0.747E-01  0.747E-01
   0.737  0.744E-01  0.744E-01
   0.747  0.738E-01  0.738E-01
   0.757  0.729E-01  0.729E-01
   0.767  0.718E-01  0.718E-01
   0.777  0.704E-01  0.704E-01
   0.787  0.689E-01  0.689E-01
   0.797  0.672E-01  0.672E-01
   0.807  0.653E-01  0.653E-01
   0.817  0.634E-01  0.634E-01
   0.827  0.613E-01  0.613E-01
   0.837  0.592E-01  0.592E-01
   0.847  0.571E-01  0.571E-01
   0.857  0.549E-01  0.549E-01
   0.867  0.527E-01  0.527E-01
   0.877  0.505E-01  0.505E-01
   0.887  0.482E-01  0.482E-01
   0.897  0.460E-01  0.460E-01
   0.907  0.438E-01  0.438E-01
   0.917  0.416E-01  0.416E-01
   0.927  0.395E-01  0.395E-01
   0.937  0.374E-01  0.374E-01
   0.947  0.354E-01  0.354E-01
   0.957  0.336E-01  0.336E-01
   0.967  0.318E-01  0.318E-01
   0.977  0.303E-01  0.303E-01
   0.987  0.290E-01  0.290E-01
   0.997  0.279E-01  0.279E-01
   1.007  0.271E-01  0.271E-01
   1.017  0.266E-01  0.266E-01
   1.027  0.264E-01  0.264E-01
   1.037  0.265E-01  0.265E-01
   1.047  0.270E-01  0.270E-01
   1.057  0.277E-01  0.277E-01
   1.067  0.286E-01  0.286E-01
   1.077  0.298E-01  0.298E-01
   1.087  0.310E-01  0.310E-01
   1.097  0.324E-01  0.324E-01
   1.107  0.338E-01  0.338E-01
   1.117  0.351E-01  0.351E-01
   1.127  0.363E-01  0.363E-01
   1.137  0.373E-01  0.373E-01
   1.147  0.380E-01  0.380E-01
   1.157  0.384E-01  0.384E-01
   1.167  0.385E-01  0.385E-01
   1.177  0.383E-01  0.383E-01
   1.187  0.377E-01  0.377E-01
   1.197  0.367E-01  0.367E-01
   1.207  0.354E-01  0.354E-01
   1.217  0.339E-01  0.339E-01
   1.227  0.320E-01  0.320E-01
   1.237  0.300E-01  0.300E-01
   1.247  0.278E-01  0.278E-01
   1.257  0.255E-01  0.255E-01
   1.267  0.233E-01  0.233E-01
   1.277  0.210E-01  0.210E-01
   1.287  0.189E-01  0.189E-01
   1.297  0.169E-01  0.169E-01
   1.307  0.151E-01  0.151E-01
   1.317  0.135E-01  0.135E-01
   1.327  0.122E-01  0.122E-01
   1.337  0.112E-01  0.112E-01
   1.347  0.105E-01  0.105E-01
   1.357  0.102E-01  0.102E-01
   1.367  0.102E-01  0.102E-01
   1.377  0.106E-01  0.106E-01
   1.387  0.113E-01  0.113E-01
   1.397  0.124E-01  0.124E-01
   1.407  0.138E-01  0.138E-01
   1.417  0.155E-01  0.155E-01
   1.427  0.175E-01  0.175E-01
   1.437  0.198E-01  0.198E-01
   1.447  0.224E-01  0.224E-01
   1.457  0.251E-01  0.251E-01
   1.467  0.279E-01  0.279E-01
   1.477  0.308E-01  0.308E-01
   1.487  0.337E-01  0.337E-01
   1.497  0.365E-01  0.365E-01
   1.507  0.393E-01  0.393E-01
   1.517  0.418E-01  0.418E-01
   1.527  0.441E-01  0.441E-01
   1.537  0.462E-01  0.462E-01
   1.547  0.479E-01  0.479E-01
   1.557  0.494E-01  0.494E-01
   1.567  0.505E-01  0.505E-01
   1.577  0.514E-01  0.514E-01
   1.587  0.519E-01  0.519E-01
   1.597  0.523E-01  0.523E-01
   1.607  0.525E-01  0.525E-01
   1.617  0.527E-01  0.527E-01
   1.627  0.528E-01  0.528E-01
   1.637  0.530E-01  0.530E-01
   1.647  0.532E-01  0.532E-01
   1.657  0.536E-01  0.536E-01
   1.667  0.542E-01  0.542E-01
   1.677  0.550E-01  0.550E-01
   1.687  0.560E-01  0.560E-01
   1.697  0.572E-01  0.572E-01
   1.707  0.586E-01  0.586E-01
   1.717  0.601E-01  0.601E-01
   1.727  0.616E-01  0.616E-01
   1.737  0.630E-01  0.630E-01
   1.747  0.644E-01  0.644E-01
   1.757  0.656E-01  0.656E-01
   1.767  0.665E-01  0.665E-01
   1.777  0.670E-01  0.670E-01
   1.787  0.672E-01  0.672E-01
   1.797  0.670E-01  0.670E-01
   1.807  0.663E-01  0.663E-01
   1.817  0.652E-01  0.652E-01
   1.827  0.636E-01  0.636E-01
   1.837  0.616E-01  0.616E-01
   1.847  0.592E-01  0.592E-01
   1.857  0.564E-01  0.564E-01
   1.867  0.534E-01  0.534E-01
   1.877  0.502E-01  0.502E-01
   1.887  0.469E-01  0.469E-01
   1.897  0.435E-01  0.435E-01
   1.907  0.401E-01  0.401E-01
   1.917  0.368E-01  0.368E-01
   1.927  0.336E-01  0.336E-01
   1.937  0.305E-01  0.305E-01
   1.947  0.276E-01  0.276E-01
   1.957  0.249E-01  0.249E-01
   1.967  0.225E-01  0.225E-01
   1.977  0.202E-01  0.202E-01
   1.987  0.182E-01  0.182E-01
   1.997  0.164E-01  0.164E-01
   2.007  0.148E-01  0.148E-01
   2.017  0.134E-01  0.134E-01
   2.027  0.122E-01  0.122E-01
   2.037  0.111E-01  0.111E-01
   2.047  0.102E-01  0.102E-01
   2.057  0.939E-02  0.939E-02
   2.067  0.874E-02  0.874E-02
   2.077  0.822E-02  0.822E-02
   2.087  0.782E-02  0.782E-02
   2.097  0.756E-02  0.756E-02
   2.107  0.743E-02  0.743E-02
   2.117  0.745E-02  0.745E-02
   2.127  0.763E-02  0.763E-02
   2.137  0.799E-02  0.799E-02
   2.147  0.854E-02  0.854E-02
   2.157  0.932E-02  0.932E-02
   2.167  0.103E-01  0.103E-01
   2.177  0.116E-01  0.116E-01
   2.187  0.132E-01  0.132E-01
   2.197  0.151E-01  0.151E-01
   2.207  0.174E-01  0.174E-01
   2.217  0.200E-01  0.200E-01
   2.227  0.229E-01  0.229E-01
   2.237  0.263E-01  0.263E-01
   2.247  0.299E-01  0.299E-01
   2.257  0.339E-01  0.339E-01
   2.267  0.382E-01  0.382E-01
   2.277  0.427E-01  0.427E-01
   2.287  0.474E-01  0.474E-01
   2.297  0.521E-01  0.521E-01
   2.307  0.568E-01  0.568E-01
   2.317  0.614E-01  0.614E-01
   2.327  0.658E-01  0.658E-01
   2.337  0.699E-01  0.699E-01
   2.347  0.735E-01  0.735E-01
   2.357  0.766E-01  0.766E-01
   2.367  0.790E-01  0.790E-01
   2.377  0.807E-01  0.807E-01
   2.387  0.816E-01  0.816E-01
   2.397  0.818E-01  0.818E-01
   2.407  0.812E-01  0.812E-01
   2.417  0.797E-01  0.797E-01
   2.427  0.776E-01  0.776E-01
   2.437  0.747E-01  0.747E-01
   2.447  0.712E-01  0.712E-01
   2.457  0.673E-01  0.673E-01
   2.467  0.629E-01  0.629E-01
   2.477  0.583E-01  0.583E-01
   2.487  0.536E-01  0.536E-01
   2.497  0.488E-01  0.488E-01
   2.507  0.440E-01  0.440E-01
   2.517  0.395E-01  0.395E-01
   2.527  0.351E-01  0.351E-01
   2.537  0.312E-01  0.312E-01
   2.547  0.275E-01  0.275E-01
   2.557  0.244E-01  0.244E-01
   2.567  0.216E-01  0.216E-01
   2.577  0.193E-01  0.193E-01
   2.587  0.175E-01  0.175E-01
   2.597  0.161E-01  0.161E-01
   2.607  0.151E-01  0.151E-01
   2.617  0.146E-01  0.146E-01
   2.627  0.143E-01  0.143E-01
   2.637  0.145E-01  0.145E-01
   2.647  0.149E-01  0.149E-01
   2.657  0.155E-01  0.155E-01
   2.667  0.164E-01  0.164E-01
   2.677  0.174E-01  0.174E-01
   2.687  0.186E-01  0.186E-01
   2.697  0.199E-01  0.199E-01
   2.707  0.213E-01  0.213E-01
   2.717  0.227E-01  0.227E-01
   2.727  0.241E-01  0.241E-01
   2.737  0.255E-01  0.255E-01
   2.747  0.268E-01  0.268E-01
   2.757  0.281E-01  0.281E-01
   2.767  0.292E-01  0.292E-01
   2.777  0.302E-01  0.302E-01
   2.787  0.310E-01  0.310E-01
   2.797  0.316E-01  0.316E-01
   2.807  0.321E-01  0.321E-01
   2.817  0.323E-01  0.323E-01
   2.827  0.323E-01  0.323E-01
   2.837  0.321E-01  0.321E-01
   2.847  0.317E-01  0.317E-01
   2.857  0.311E-01  0.311E-01
   2.867  0.303E-01  0.303E-01
   2.877  0.295E-01  0.295E-01
   2.887  0.285E-01  0.285E-01
   2.897  0.276E-01  0.276E-01
   2.907  0.267E-01  0.267E-01
   2.917  0.259E-01  0.259E-01
   2.927  0.252E-01  0.252E-01
   2.937  0.248E-01  0.248E-01
   2.947  0.246E-01  0.246E-01
   2.957  0.247E-01  0.247E-01
   2.967  0.252E-01  0.252E-01
   2.977  0.260E-01  0.260E-01
   2.987  0.273E-01  0.273E-01
   2.997  0.289E-01  0.289E-01
   3.007  0.310E-01  0.310E-01
   3.017  0.334E-01  0.334E-01
   3.027  0.362E-01  0.362E-01
   3.037  0.394E-01  0.394E-01
   3.047  0.427E-01  0.427E-01
   3.057  0.463E-01  0.463E-01
   3.067  0.500E-01  0.500E-01
   3.077  0.537E-01  0.537E-01
   3.087  0.574E-01  0.574E-01
   3.097  0.609E-01  0.609E-01
   3.107  0.641E-01  0.641E-01
   3.117  0.671E-01  0.671E-01
   3.127  0.696E-01  0.696E-01
   3.137  0.716E-01  0.716E-01
   3.147  0.731E-01  0.731E-01
   3.157  0.741E-01  0.741E-01
   3.167  0.744E-01  0.744E-01
   3.177  0.740E-01  0.740E-01
   3.187  0.731E-01  0.731E-01
   3.197  0.715E-01  0.715E-01
   3.207  0.694E-01  0.694E-01
   3.217  0.667E-01  0.667E-01
   3.227  0.636E-01  0.636E-01
   3.237  0.601E-01  0.601E-01
   3.247  0.562E-01  0.562E-01
   3.257  0.522E-01  0.522E-01
   3.267  0.480E-01  0.480E-01
   3.277  0.438E-01  0.438E-01
   3.287  0.396E-01  0.396E-01
   3.297  0.355E-01  0.355E-01
   3.307  0.316E-01  0.316E-01
   3.317  0.279E-01  0.279E-01
   3.327  0.244E-01  0.244E-01
   3.337  0.212E-01  0.212E-01
   3.347  0.183E-01  0.183E-01
   3.357  0.157E-01  0.157E-01
   3.367  0.134E-01  0.134E-01
   3.377  0.114E-01  0.114E-01
   3.387  0.967E-02  0.967E-02
   3.397  0.820E-02  0.820E-02
   3.407  0.697E-02  0.697E-02
   3.417  0.595E-02  0.595E-02
   3.427  0.511E-02  0.511E-02
   3.437  0.444E-02  0.444E-02
   3.447  0.392E-02  0.392E-02
   3.457  0.352E-02  0.352E-02
   3.467  0.323E-02  0.323E-02
   3.477  0.303E-02  0.303E-02
   3.487  0.292E-02  0.292E-02
   3.497  0.289E-02  0.289E-02
   3.507  0.293E-02  0.293E-02
   3.517  0.305E-02  0.305E-02
   3.527  0.323E-02  0.323E-02
   3.537  0.349E-02  0.349E-02
   3.547  0.382E-02  0.382E-02
   3.557  0.422E-02  0.422E-02
   3.567  0.469E-02  0.469E-02
   3.577  0.524E-02  0.524E-02
   3.587  0.586E-02  0.586E-02
   3.597  0.656E-02  0.656E-02
   3.607  0.734E-02  0.734E-02
   3.617  0.820E-02  0.820E-02
   3.627  0.914E-02  0.914E-02
   3.637  0.102E-01  0.102E-01
   3.647  0.113E-01  0.113E-01
   3.657  0.125E-01  0.125E-01
   3.667  0.138E-01  0.138E-01
   3.677  0.152E-01  0.152E-01
   3.687  0.167E-01  0.167E-01
   3.697  0.184E-01  0.184E-01
   3.707  0.202E-01  0.202E-01
   3.717  0.221E-01  0.221E-01
   3.727  0.242E-01  0.242E-01
   3.737  0.264E-01  0.264E-01
   3.747  0.288E-01  0.288E-01
   3.757  0.313E-01  0.313E-01
   3.767  0.339E-01  0.339E-01
   3.777  0.365E-01  0.365E-01
   3.787  0.393E-01  0.393E-01
   3.797  0.421E-01  0.421E-01
   3.807  0.449E-01  0.449E-01
   3.817  0.476E-01  0.476E-01
   3.827  0.502E-01  0.502E-01
   3.837  0.527E-01  0.527E-01
   3.847  0.551E-01  0.551E-01
   3.857  0.572E-01  0.572E-01
   3.867  0.590E-01  0.590E-01
   3.877  0.606E-01  0.606E-01
   3.887  0.619E-01  0.619E-01
   3.897  0.629E-01  0.629E-01
   3.907  0.636E-01  0.636E-01
   3.917  0.639E-01  0.639E-01
   3.927  0.639E-01  0.639E-01
   3.937  0.636E-01  0.636E-01
   3.947  0.630E-01  0.630E-01
   3.957  0.620E-01  0.620E-01
   3.967  0.608E-01  0.608E-01
   3.977  0.593E-01  0.593E-01
   3.987  0.575E-01  0.575E-01
   3.997  0.555E-01  0.555E-01
   4.007  0.533E-01  0.533E-01
   4.017  0.509E-01  0.509E-01
   4.027  0.483E-01  0.483E-01
   4.037  0.456E-01  0.456E-01
   4.047  0.428E-01  0.428E-01
   4.057  0.399E-01  0.399E-01
   4.067  0.371E-01  0.371E-01
   4.077  0.342E-01  0.342E-01
   4.087  0.314E-01  0.314E-01
   4.097  0.287E-01  0.287E-01
   4.107  0.262E-01  0.262E-01
   4.117  0.238E-01  0.238E-01
   4.127  0.216E-01  0.216E-01
   4.137  0.196E-01  0.196E-01
   4.147  0.178E-01  0.178E-01
   4.157  0.163E-01  0.163E-01
   4.167  0.149E-01  0.149E-01
   4.177  0.137E-01  0.137E-01
   4.187  0.127E-01  0.127E-01
   4.197  0.119E-01  0.119E-01
   4.207  0.111E-01  0.111E-01
   4.217  0.105E-01  0.105E-01
   4.227  0.100E-01  0.100E-01
   4.237  0.954E-02  0.954E-02
   4.247  0.910E-02  0.910E-02
   4.257  0.869E-02  0.869E-02
   4.267  0.827E-02  0.827E-02
   4.277  0.786E-02  0.786E-02
   4.287  0.743E-02  0.743E-02
   4.297  0.700E-02  0.700E-02
   4.307  0.655E-02  0.655E-02
   4.317  0.610E-02  0.610E-02
   4.327  0.565E-02  0.565E-02
   4.337  0.521E-02  0.521E-02
   4.347  0.480E-02  0.480E-02
   4.357  0.443E-02  0.443E-02
   4.367  0.410E-02  0.410E-02
   4.377  0.383E-02  0.383E-02
   4.387  0.364E-02  0.364E-02
   4.397  0.354E-02  0.354E-02
   4.407  0.353E-02  0.353E-02
   4.417  0.363E-02  0.363E-02
   4.427  0.385E-02  0.385E-02
   4.437  0.419E-02  0.419E-02
   4.447  0.466E-02  0.466E-02
   4.457  0.526E-02  0.526E-02
   4.467  0.600E-02  0.600E-02
   4.477  0.686E-02  0.686E-02
   4.487  0.785E-02  0.785E-02
   4.497  0.896E-02  0.896E-02
   4.507  0.102E-01  0.102E-01
   4.517  0.115E-01  0.115E-01
   4.527  0.129E-01  0.129E-01
   4.537  0.143E-01  0.143E-01
   4.547  0.158E-01  0.158E-01
   4.557  0.173E-01  0.173E-01
   4.567  0.188E-01  0.188E-01
   4.577  0.203E-01  0.203E-01
   4.587  0.217E-01  0.217E-01
   4.597  0.231E-01  0.231E-01
   4.607  0.245E-01  0.245E-01
   4.617  0.258E-01  0.258E-01
   4.627  0.270E-01  0.270E-01
   4.637  0.282E-01  0.282E-01
   4.647  0.293E-01  0.293E-01
   4.657  0.305E-01  0.305E-01
   4.667  0.315E-01  0.315E-01
   4.677  0.326E-01  0.326E-01
   4.687  0.337E-01  0.337E-01
   4.697  0.347E-01  0.347E-01
   4.707  0.357E-01  0.357E-01
   4.717  0.367E-01  0.367E-01
   4.727  0.377E-01  0.377E-01
   4.737  0.386E-01  0.386E-01
   4.747  0.394E-01  0.394E-01
   4.757  0.401E-01  0.401E-01
   4.767  0.408E-01  0.408E-01
   4.777  0.412E-01  0.412E-01
   4.787  0.415E-01  0.415E-01
   4.797  0.416E-01  0.416E-01
   4.807  0.416E-01  0.416E-01
   4.817  0.413E-01  0.413E-01
   4.827  0.408E-01  0.408E-01
   4.837  0.402E-01  0.402E-01
   4.847  0.394E-01  0.394E-01
   4.857  0.384E-01  0.384E-01
   4.867  0.373E-01  0.373E-01
   4.877  0.361E-01  0.361E-01
   4.887  0.348E-01  0.348E-01
   4.897  0.334E-01  0.334E-01
   4.907  0.319E-01  0.319E-01
   4.917  0.304E-01  0.304E-01
   4.927  0.289E-01  0.289E-01
   4.937  0.273E-01  0.273E-01
   4.947  0.257E-01  0.257E-01
   4.957  0.241E-01  0.241E-01
   4.967  0.225E-01  0.225E-01
   4.977  0.209E-01  0.209E-01
   4.987  0.193E-01  0.193E-01
   4.997  0.178E-01  0.178E-01
   5.007  0.162E-01  0.162E-01
   5.017  0.147E-01  0.147E-01
   5.027  0.133E-01  0.133E-01
   5.037  0.119E-01  0.119E-01
   5.047  0.106E-01  0.106E-01
   5.057  0.935E-02  0.935E-02
   5.067  0.819E-02  0.819E-02
   5.077  0.713E-02  0.713E-02
   5.087  0.618E-02  0.618E-02
   5.097  0.533E-02  0.533E-02
   5.107  0.460E-02  0.460E-02
   5.117  0.398E-02  0.398E-02
   5.127  0.348E-02  0.348E-02
   5.137  0.310E-02  0.310E-02
   5.147  0.284E-02  0.284E-02
   5.157  0.270E-02  0.270E-02
   5.167  0.267E-02  0.267E-02
   5.177  0.277E-02  0.277E-02
   5.187  0.298E-02  0.298E-02
   5.197  0.332E-02  0.332E-02
   5.207  0.377E-02  0.377E-02
   5.217  0.434E-02  0.434E-02
   5.227  0.503E-02  0.503E-02
   5.237  0.583E-02  0.583E-02
   5.247  0.674E-02  0.674E-02
   5.257  0.775E-02  0.775E-02
   5.267  0.885E-02  0.885E-02
   5.277  0.100E-01  0.100E-01
   5.287  0.113E-01  0.113E-01
   5.297  0.126E-01  0.126E-01
   5.307  0.139E-01  0.139E-01
   5.317  0.153E-01  0.153E-01
   5.327  0.166E-01  0.166E-01
   5.337  0.179E-01  0.179E-01
   5.347  0.192E-01  0.192E-01
   5.357  0.205E-01  0.205E-01
   5.367  0.216E-01  0.216E-01
   5.377  0.227E-01  0.227E-01
   5.387  0.237E-01  0.237E-01
   5.397  0.246E-01  0.246E-01
   5.407  0.254E-01  0.254E-01
   5.417  0.261E-01  0.261E-01
   5.427  0.266E-01  0.266E-01
   5.437  0.270E-01  0.270E-01
   5.447  0.273E-01  0.273E-01
   5.457  0.274E-01  0.274E-01
   5.467  0.274E-01  0.274E-01
   5.477  0.273E-01  0.273E-01
   5.487  0.270E-01  0.270E-01
   5.497  0.265E-01  0.265E-01
   5.507  0.259E-01  0.259E-01
   5.517  0.252E-01  0.252E-01
   5.527  0.243E-01  0.243E-01
   5.537  0.233E-01  0.233E-01
   5.547  0.222E-01  0.222E-01
   5.557  0.210E-01  0.210E-01
   5.567  0.197E-01  0.197E-01
   5.577  0.183E-01  0.183E-01
   5.587  0.169E-01  0.169E-01
   5.597  0.154E-01  0.154E-01
   5.607  0.140E-01  0.140E-01
   5.617  0.126E-01  0.126E-01
   5.627  0.113E-01  0.113E-01
   5.637  0.100E-01  0.100E-01
   5.647  0.886E-02  0.886E-02
   5.657  0.781E-02  0.781E-02
   5.667  0.687E-02  0.687E-02
   5.677  0.606E-02  0.606E-02
   5.687  0.538E-02  0.538E-02
   5.697  0.484E-02  0.484E-02
   5.707  0.444E-02  0.444E-02
   5.717  0.416E-02  0.416E-02
   5.727  0.401E-02  0.401E-02
   5.737  0.398E-02  0.398E-02
   5.747  0.406E-02  0.406E-02
   5.757  0.423E-02  0.423E-02
   5.767  0.449E-02  0.449E-02
   5.777  0.483E-02  0.483E-02
   5.787  0.522E-02  0.522E-02
   5.797  0.566E-02  0.566E-02
   5.807  0.614E-02  0.614E-02
   5.817  0.664E-02  0.664E-02
   5.827  0.714E-02  0.714E-02
   5.837  0.764E-02  0.764E-02
   5.847  0.813E-02  0.813E-02
   5.857  0.861E-02  0.861E-02
   5.867  0.906E-02  0.906E-02
   5.877  0.948E-02  0.948E-02
   5.887  0.987E-02  0.987E-02
   5.897  0.102E-01  0.102E-01
   5.907  0.106E-01  0.106E-01
   5.917  0.109E-01  0.109E-01
   5.927  0.112E-01  0.112E-01
   5.937  0.114E-01  0.114E-01
   5.947  0.117E-01  0.117E-01
   5.957  0.120E-01  0.120E-01
   5.967  0.122E-01  0.122E-01
   5.977  0.125E-01  0.125E-01
   5.987  0.127E-01  0.127E-01
   5.997  0.130E-01  0.130E-01
   6.007  0.132E-01  0.132E-01
   6.017  0.134E-01  0.134E-01
   6.027  0.135E-01  0.135E-01
   6.037  0.136E-01  0.136E-01
   6.047  0.137E-01  0.137E-01
   6.057  0.137E-01  0.137E-01
   6.067  0.136E-01  0.136E-01
   6.077  0.134E-01  0.134E-01
   6.087  0.132E-01  0.132E-01
   6.097  0.128E-01  0.128E-01
   6.107  0.124E-01  0.124E-01
   6.117  0.119E-01  0.119E-01
   6.127  0.113E-01  0.113E-01
   6.137  0.106E-01  0.106E-01
   6.147  0.995E-02  0.995E-02
   6.157  0.921E-02  0.921E-02
   6.167  0.846E-02  0.846E-02
   6.177  0.769E-02  0.769E-02
   6.187  0.693E-02  0.693E-02
   6.197  0.619E-02  0.619E-02
   6.207  0.548E-02  0.548E-02
   6.217  0.480E-02  0.480E-02
   6.227  0.416E-02  0.416E-02
   6.237  0.358E-02  0.358E-02
   6.247  0.305E-02  0.305E-02
   6.257  0.258E-02  0.258E-02
   6.267  0.217E-02  0.217E-02
   6.277  0.181E-02  0.181E-02
   6.287  0.151E-02  0.151E-02
   6.297  0.127E-02  0.127E-02
   6.307  0.108E-02  0.108E-02
   6.317  0.951E-03  0.951E-03
   6.327  0.876E-03  0.876E-03
   6.337  0.863E-03  0.863E-03
   6.347  0.916E-03  0.916E-03
   6.357  0.104E-02  0.104E-02
   6.367  0.126E-02  0.126E-02
   6.377  0.158E-02  0.158E-02
   6.387  0.202E-02  0.202E-02
   6.397  0.261E-02  0.261E-02
   6.407  0.338E-02  0.338E-02
   6.417  0.435E-02  0.435E-02
   6.427  0.556E-02  0.556E-02
   6.437  0.706E-02  0.706E-02
   6.447  0.889E-02  0.889E-02
   6.457  0.111E-01  0.111E-01
   6.467  0.137E-01  0.137E-01
   6.477  0.167E-01  0.167E-01
   6.487  0.203E-01  0.203E-01
   6.497  0.243E-01  0.243E-01
   6.507  0.289E-01  0.289E-01
   6.517  0.341E-01  0.341E-01
   6.527  0.398E-01  0.398E-01
   6.537  0.460E-01  0.460E-01
   6.547  0.528E-01  0.528E-01
   6.557  0.599E-01  0.599E-01
   6.567  0.675E-01  0.675E-01
   6.577  0.754E-01  0.754E-01
   6.587  0.835E-01  0.835E-01
   6.597  0.918E-01  0.918E-01
   6.607  0.100E+00  0.100E+00
   6.617  0.108E+00  0.108E+00
   6.627  0.116E+00  0.116E+00
   6.637  0.124E+00  0.124E+00
   6.647  0.131E+00  0.131E+00
   6.657  0.138E+00  0.138E+00
   6.667  0.144E+00  0.144E+00
   6.677  0.149E+00  0.149E+00
   6.687  0.154E+00  0.154E+00
   6.697  0.158E+00  0.158E+00
   6.707  0.161E+00  0.161E+00
   6.717  0.164E+00  0.164E+00
   6.727  0.166E+00  0.166E+00
   6.737  0.167E+00  0.167E+00
   6.747  0.167E+00  0.167E+00
   6.757  0.167E+00  0.167E+00
   6.767  0.167E+00  0.167E+00
   6.777  0.166E+00  0.166E+00
   6.787  0.164E+00  0.164E+00
   6.797  0.163E+00  0.163E+00
   6.807  0.161E+00  0.161E+00
   6.817  0.159E+00  0.159E+00
   6.827  0.158E+00  0.158E+00
   6.837  0.156E+00  0.156E+00
   6.847  0.154E+00  0.154E+00
   6.857  0.152E+00  0.152E+00
   6.867  0.150E+00  0.150E+00
   6.877  0.149E+00  0.149E+00
   6.887  0.147E+00  0.147E+00
   6.897  0.146E+00  0.146E+00
   6.907  0.144E+00  0.144E+00
   6.917  0.142E+00  0.142E+00
   6.927  0.140E+00  0.140E+00
   6.937  0.138E+00  0.138E+00
   6.947  0.136E+00  0.136E+00
   6.957  0.133E+00  0.133E+00
   6.967  0.131E+00  0.131E+00
   6.977  0.128E+00  0.128E+00
   6.987  0.124E+00  0.124E+00
   6.997  0.121E+00  0.121E+00
   7.007  0.117E+00  0.117E+00
   7.017  0.113E+00  0.113E+00
   7.027  0.108E+00  0.108E+00
   7.037  0.104E+00  0.104E+00
   7.047  0.995E-01  0.995E-01
   7.057  0.950E-01  0.950E-01
   7.067  0.907E-01  0.907E-01
   7.077  0.864E-01  0.864E-01
   7.087  0.825E-01  0.825E-01
   7.097  0.788E-01  0.788E-01
   7.107  0.756E-01  0.756E-01
   7.117  0.729E-01  0.729E-01
   7.127  0.707E-01  0.707E-01
   7.137  0.692E-01  0.692E-01
   7.147  0.683E-01  0.683E-01
   7.157  0.681E-01  0.681E-01
   7.167  0.685E-01  0.685E-01
   7.177  0.697E-01  0.697E-01
   7.187  0.715E-01  0.715E-01
   7.197  0.738E-01  0.738E-01
   7.207  0.767E-01  0.767E-01
   7.217  0.800E-01  0.800E-01
   7.227  0.837E-01  0.837E-01
   7.237  0.875E-01  0.875E-01
   7.247  0.914E-01  0.914E-01
   7.257  0.953E-01  0.953E-01
   7.267  0.990E-01  0.990E-01
   7.277  0.102E+00  0.102E+00
   7.287  0.106E+00  0.106E+00
   7.297  0.108E+00  0.108E+00
   7.307  0.110E+00  0.110E+00
   7.317  0.112E+00  0.112E+00
   7.327  0.113E+00  0.113E+00
   7.337  0.113E+00  0.113E+00
   7.347  0.113E+00  0.113E+00
   7.357  0.112E+00  0.112E+00
   7.367  0.111E+00  0.111E+00
   7.377  0.110E+00  0.110E+00
   7.387  0.108E+00  0.108E+00
   7.397  0.107E+00  0.107E+00
   7.407  0.105E+00  0.105E+00
   7.417  0.104E+00  0.104E+00
   7.427  0.102E+00  0.102E+00
   7.437  0.101E+00  0.101E+00
   7.447  0.101E+00  0.101E+00
   7.457  0.100E+00  0.100E+00
   7.467  0.101E+00  0.101E+00
   7.477  0.102E+00  0.102E+00
   7.487  0.104E+00  0.104E+00
   7.497  0.106E+00  0.106E+00
   7.507  0.109E+00  0.109E+00
   7.517  0.113E+00  0.113E+00
   7.527  0.119E+00  0.119E+00
   7.537  0.125E+00  0.125E+00
   7.547  0.131E+00  0.131E+00
   7.557  0.139E+00  0.139E+00
   7.567  0.148E+00  0.148E+00
   7.577  0.158E+00  0.158E+00
   7.587  0.168E+00  0.168E+00
   7.597  0.179E+00  0.179E+00
   7.607  0.190E+00  0.190E+00
   7.617  0.202E+00  0.202E+00
   7.627  0.213E+00  0.213E+00
   7.637  0.225E+00  0.225E+00
   7.647  0.236E+00  0.236E+00
   7.657  0.246E+00  0.246E+00
   7.667  0.255E+00  0.255E+00
   7.677  0.263E+00  0.263E+00
   7.687  0.270E+00  0.270E+00
   7.697  0.275E+00  0.275E+00
   7.707  0.278E+00  0.278E+00
   7.717  0.279E+00  0.279E+00
   7.727  0.279E+00  0.279E+00
   7.737  0.277E+00  0.277E+00
   7.747  0.274E+00  0.274E+00
   7.757  0.269E+00  0.269E+00
   7.767  0.263E+00  0.263E+00
   7.777  0.255E+00  0.255E+00
   7.787  0.247E+00  0.247E+00
   7.797  0.238E+00  0.238E+00
   7.807  0.229E+00  0.229E+00
   7.817  0.219E+00  0.219E+00
   7.827  0.210E+00  0.210E+00
   7.837  0.201E+00  0.201E+00
   7.847  0.192E+00  0.192E+00
   7.857  0.183E+00  0.183E+00
   7.867  0.175E+00  0.175E+00
   7.877  0.168E+00  0.168E+00
   7.887  0.162E+00  0.162E+00
   7.897  0.156E+00  0.156E+00
   7.907  0.151E+00  0.151E+00
   7.917  0.146E+00  0.146E+00
   7.927  0.143E+00  0.143E+00
   7.937  0.140E+00  0.140E+00
   7.947  0.138E+00  0.138E+00
   7.957  0.136E+00  0.136E+00
   7.967  0.135E+00  0.135E+00
   7.977  0.135E+00  0.135E+00
   7.987  0.134E+00  0.134E+00
   7.997  0.134E+00  0.134E+00
   8.007  0.135E+00  0.135E+00
   8.017  0.135E+00  0.135E+00
   8.027  0.136E+00  0.136E+00
   8.037  0.136E+00  0.136E+00
   8.047  0.137E+00  0.137E+00
   8.057  0.137E+00  0.137E+00
   8.067  0.138E+00  0.138E+00
   8.077  0.138E+00  0.138E+00
   8.087  0.138E+00  0.138E+00
   8.097  0.138E+00  0.138E+00
   8.107  0.137E+00  0.137E+00
   8.117  0.137E+00  0.137E+00
   8.127  0.136E+00  0.136E+00
   8.137  0.136E+00  0.136E+00
   8.147  0.135E+00  0.135E+00
   8.157  0.135E+00  0.135E+00
   8.167  0.134E+00  0.134E+00
   8.177  0.134E+00  0.134E+00
   8.187  0.133E+00  0.133E+00
   8.197  0.132E+00  0.132E+00
   8.207  0.131E+00  0.131E+00
   8.217  0.130E+00  0.130E+00
   8.227  0.129E+00  0.129E+00
   8.237  0.128E+00  0.128E+00
   8.247  0.126E+00  0.126E+00
   8.257  0.124E+00  0.124E+00
   8.267  0.122E+00  0.122E+00
   8.277  0.120E+00  0.120E+00
   8.287  0.117E+00  0.117E+00
   8.297  0.115E+00  0.115E+00
   8.307  0.112E+00  0.112E+00
   8.317  0.109E+00  0.109E+00
   8.327  0.107E+00  0.107E+00
   8.337  0.105E+00  0.105E+00
   8.347  0.102E+00  0.102E+00
   8.357  0.101E+00  0.101E+00
   8.367  0.990E-01  0.990E-01
   8.377  0.977E-01  0.977E-01
   8.387  0.968E-01  0.968E-01
   8.397  0.961E-01  0.961E-01
   8.407  0.956E-01  0.956E-01
   8.417  0.953E-01  0.953E-01
   8.427  0.950E-01  0.950E-01
   8.437  0.947E-01  0.947E-01
   8.447  0.943E-01  0.943E-01
   8.457  0.937E-01  0.937E-01
   8.467  0.928E-01  0.928E-01
   8.477  0.916E-01  0.916E-01
   8.487  0.901E-01  0.901E-01
   8.497  0.882E-01  0.882E-01
   8.507  0.860E-01  0.860E-01
   8.517  0.835E-01  0.835E-01
   8.527  0.809E-01  0.809E-01
   8.537  0.780E-01  0.780E-01
   8.547  0.752E-01  0.752E-01
   8.557  0.723E-01  0.723E-01
   8.567  0.697E-01  0.697E-01
   8.577  0.673E-01  0.673E-01
   8.587  0.653E-01  0.653E-01
   8.597  0.637E-01  0.637E-01
   8.607  0.626E-01  0.626E-01
   8.617  0.620E-01  0.620E-01
   8.627  0.621E-01  0.621E-01
   8.637  0.626E-01  0.626E-01
   8.647  0.638E-01  0.638E-01
   8.657  0.655E-01  0.655E-01
   8.667  0.676E-01  0.676E-01
   8.677  0.701E-01  0.701E-01
   8.687  0.729E-01  0.729E-01
   8.697  0.759E-01  0.759E-01
   8.707  0.790E-01  0.790E-01
   8.717  0.821E-01  0.821E-01
   8.727  0.851E-01  0.851E-01
   8.737  0.880E-01  0.880E-01
   8.747  0.906E-01  0.906E-01
   8.757  0.928E-01  0.928E-01
   8.767  0.947E-01  0.947E-01
   8.777  0.962E-01  0.962E-01
   8.787  0.972E-01  0.972E-01
   8.797  0.978E-01  0.978E-01
   8.807  0.979E-01  0.979E-01
   8.817  0.977E-01  0.977E-01
   8.827  0.971E-01  0.971E-01
   8.837  0.962E-01  0.962E-01
   8.847  0.951E-01  0.951E-01
   8.857  0.938E-01  0.938E-01
   8.867  0.925E-01  0.925E-01
   8.877  0.913E-01  0.913E-01
   8.887  0.902E-01  0.902E-01
   8.897  0.893E-01  0.893E-01
   8.907  0.887E-01  0.887E-01
   8.917  0.884E-01  0.884E-01
   8.927  0.884E-01  0.884E-01
   8.937  0.889E-01  0.889E-01
   8.947  0.898E-01  0.898E-01
   8.957  0.911E-01  0.911E-01
   8.967  0.928E-01  0.928E-01
   8.977  0.948E-01  0.948E-01
   8.987  0.972E-01  0.972E-01
   8.997  0.998E-01  0.998E-01
   9.007  0.103E+00  0.103E+00
   9.017  0.106E+00  0.106E+00
   9.027  0.109E+00  0.109E+00
   9.037  0.112E+00  0.112E+00
   9.047  0.115E+00  0.115E+00
   9.057  0.118E+00  0.118E+00
   9.067  0.121E+00  0.121E+00
   9.077  0.124E+00  0.124E+00
   9.087  0.126E+00  0.126E+00
   9.097  0.129E+00  0.129E+00
   9.107  0.131E+00  0.131E+00
   9.117  0.132E+00  0.132E+00
   9.127  0.134E+00  0.134E+00
   9.137  0.134E+00  0.134E+00
   9.147  0.135E+00  0.135E+00
   9.157  0.134E+00  0.134E+00
   9.167  0.133E+00  0.133E+00
   9.177  0.132E+00  0.132E+00
   9.187  0.130E+00  0.130E+00
   9.197  0.127E+00  0.127E+00
   9.207  0.124E+00  0.124E+00
   9.217  0.120E+00  0.120E+00
   9.227  0.116E+00  0.116E+00
   9.237  0.112E+00  0.112E+00
   9.247  0.108E+00  0.108E+00
   9.257  0.104E+00  0.104E+00
   9.267  0.999E-01  0.999E-01
   9.277  0.966E-01  0.966E-01
   9.287  0.940E-01  0.940E-01
   9.297  0.923E-01  0.923E-01
   9.307  0.916E-01  0.916E-01
   9.317  0.922E-01  0.922E-01
   9.327  0.942E-01  0.942E-01
   9.337  0.976E-01  0.976E-01
   9.347  0.103E+00  0.103E+00
   9.357  0.109E+00  0.109E+00
   9.367  0.117E+00  0.117E+00
   9.377  0.126E+00  0.126E+00
   9.387  0.136E+00  0.136E+00
   9.397  0.147E+00  0.147E+00
   9.407  0.159E+00  0.159E+00
   9.417  0.171E+00  0.171E+00
   9.427  0.183E+00  0.183E+00
   9.437  0.195E+00  0.195E+00
   9.447  0.206E+00  0.206E+00
   9.457  0.216E+00  0.216E+00
   9.467  0.225E+00  0.225E+00
   9.477  0.233E+00  0.233E+00
   9.487  0.239E+00  0.239E+00
   9.497  0.243E+00  0.243E+00
   9.507  0.246E+00  0.246E+00
   9.517  0.248E+00  0.248E+00
   9.527  0.248E+00  0.248E+00
   9.537  0.246E+00  0.246E+00
   9.547  0.244E+00  0.244E+00
   9.557  0.242E+00  0.242E+00
   9.567  0.239E+00  0.239E+00
   9.577  0.237E+00  0.237E+00
   9.587  0.234E+00  0.234E+00
   9.597  0.233E+00  0.233E+00
   9.607  0.232E+00  0.232E+00
   9.617  0.233E+00  0.233E+00
   9.627  0.234E+00  0.234E+00
   9.637  0.236E+00  0.236E+00
   9.647  0.240E+00  0.240E+00
   9.657  0.244E+00  0.244E+00
   9.667  0.249E+00  0.249E+00
   9.677  0.254E+00  0.254E+00
   9.687  0.259E+00  0.259E+00
   9.697  0.263E+00  0.263E+00
   9.707  0.267E+00  0.267E+00
   9.717  0.270E+00  0.270E+00
   9.727  0.272E+00  0.272E+00
   9.737  0.272E+00  0.272E+00
   9.747  0.271E+00  0.271E+00
   9.757  0.267E+00  0.267E+00
   9.767  0.262E+00  0.262E+00
   9.777  0.256E+00  0.256E+00
   9.787  0.248E+00  0.248E+00
   9.797  0.238E+00  0.238E+00
   9.807  0.227E+00  0.227E+00
   9.817  0.214E+00  0.214E+00
   9.827  0.201E+00  0.201E+00
   9.837  0.188E+00  0.188E+00
   9.847  0.173E+00  0.173E+00
   9.857  0.159E+00  0.159E+00
   9.867  0.145E+00  0.145E+00
   9.877  0.131E+00  0.131E+00
   9.887  0.118E+00  0.118E+00
   9.897  0.105E+00  0.105E+00
   9.907  0.935E-01  0.935E-01
   9.917  0.826E-01  0.826E-01
   9.927  0.726E-01  0.726E-01
   9.937  0.637E-01  0.637E-01
   9.947  0.558E-01  0.558E-01
   9.957  0.490E-01  0.490E-01
   9.967  0.432E-01  0.432E-01
   9.977  0.385E-01  0.385E-01
   9.987  0.348E-01  0.348E-01
   9.997  0.321E-01  0.321E-01
  10.007  0.303E-01  0.303E-01
  10.017  0.295E-01  0.295E-01
  10.027  0.295E-01  0.295E-01
  10.037  0.305E-01  0.305E-01
  10.047  0.324E-01  0.324E-01
  10.057  0.351E-01  0.351E-01
  10.067  0.387E-01  0.387E-01
  10.077  0.431E-01  0.431E-01
  10.087  0.483E-01  0.483E-01
  10.097  0.543E-01  0.543E-01
  10.107  0.611E-01  0.611E-01
  10.117  0.685E-01  0.685E-01
  10.127  0.766E-01  0.766E-01
  10.137  0.852E-01  0.852E-01
  10.147  0.942E-01  0.942E-01
  10.157  0.104E+00  0.104E+00
  10.167  0.113E+00  0.113E+00
  10.177  0.122E+00  0.122E+00
  10.187  0.132E+00  0.132E+00
  10.197  0.141E+00  0.141E+00
  10.207  0.149E+00  0.149E+00
  10.217  0.156E+00  0.156E+00
  10.227  0.163E+00  0.163E+00
  10.237  0.169E+00  0.169E+00
  10.247  0.173E+00  0.173E+00
  10.257  0.176E+00  0.176E+00
  10.267  0.177E+00  0.177E+00
  10.277  0.178E+00  0.178E+00
  10.287  0.176E+00  0.176E+00
  10.297  0.174E+00  0.174E+00
  10.307  0.170E+00  0.170E+00
  10.317  0.165E+00  0.165E+00
  10.327  0.159E+00  0.159E+00
  10.337  0.152E+00  0.152E+00
  10.347  0.145E+00  0.145E+00
  10.357  0.138E+00  0.138E+00
  10.367  0.130E+00  0.130E+00
  10.377  0.122E+00  0.122E+00
  10.387  0.115E+00  0.115E+00
  10.397  0.109E+00  0.109E+00
  10.407  0.103E+00  0.103E+00
  10.417  0.976E-01  0.976E-01
  10.427  0.936E-01  0.936E-01
  10.437  0.907E-01  0.907E-01
  10.447  0.888E-01  0.888E-01
  10.457  0.882E-01  0.882E-01
  10.467  0.886E-01  0.886E-01
  10.477  0.901E-01  0.901E-01
  10.487  0.925E-01  0.925E-01
  10.497  0.957E-01  0.957E-01
  10.507  0.996E-01  0.996E-01
  10.517  0.104E+00  0.104E+00
  10.527  0.108E+00  0.108E+00
  10.537  0.113E+00  0.113E+00
  10.547  0.118E+00  0.118E+00
  10.557  0.122E+00  0.122E+00
  10.567  0.125E+00  0.125E+00
  10.577  0.128E+00  0.128E+00
  10.587  0.130E+00  0.130E+00
  10.597  0.132E+00  0.132E+00
  10.607  0.132E+00  0.132E+00
  10.617  0.131E+00  0.131E+00
  10.627  0.130E+00  0.130E+00
  10.637  0.127E+00  0.127E+00
  10.647  0.124E+00  0.124E+00
  10.657  0.120E+00  0.120E+00
  10.667  0.115E+00  0.115E+00
  10.677  0.110E+00  0.110E+00
  10.687  0.105E+00  0.105E+00
  10.697  0.996E-01  0.996E-01
  10.707  0.943E-01  0.943E-01
  10.717  0.891E-01  0.891E-01
  10.727  0.842E-01  0.842E-01
  10.737  0.796E-01  0.796E-01
  10.747  0.754E-01  0.754E-01
  10.757  0.717E-01  0.717E-01
  10.767  0.684E-01  0.684E-01
  10.777  0.655E-01  0.655E-01
  10.787  0.631E-01  0.631E-01
  10.797  0.611E-01  0.611E-01
  10.807  0.593E-01  0.593E-01
  10.817  0.579E-01  0.579E-01
  10.827  0.567E-01  0.567E-01
  10.837  0.558E-01  0.558E-01
  10.847  0.550E-01  0.550E-01
  10.857  0.543E-01  0.543E-01
  10.867  0.538E-01  0.538E-01
  10.877  0.535E-01  0.535E-01
  10.887  0.533E-01  0.533E-01
  10.897  0.534E-01  0.534E-01
  10.907  0.536E-01  0.536E-01
  10.917  0.541E-01  0.541E-01
  10.927  0.548E-01  0.548E-01
  10.937  0.558E-01  0.558E-01
  10.947  0.570E-01  0.570E-01
  10.957  0.586E-01  0.586E-01
  10.967  0.603E-01  0.603E-01
  10.977  0.622E-01  0.622E-01
  10.987  0.643E-01  0.643E-01
  10.997  0.665E-01  0.665E-01
  11.007  0.686E-01  0.686E-01
  11.017  0.707E-01  0.707E-01
  11.027  0.727E-01  0.727E-01
  11.037  0.744E-01  0.744E-01
  11.047  0.758E-01  0.758E-01
  11.057  0.768E-01  0.768E-01
  11.067  0.773E-01  0.773E-01
  11.077  0.774E-01  0.774E-01
  11.087  0.770E-01  0.770E-01
  11.097  0.760E-01  0.760E-01
  11.107  0.745E-01  0.745E-01
  11.117  0.724E-01  0.724E-01
  11.127  0.699E-01  0.699E-01
  11.137  0.670E-01  0.670E-01
  11.147  0.637E-01  0.637E-01
  11.157  0.600E-01  0.600E-01
  11.167  0.562E-01  0.562E-01
  11.177  0.522E-01  0.522E-01
  11.187  0.481E-01  0.481E-01
  11.197  0.440E-01  0.440E-01
  11.207  0.400E-01  0.400E-01
  11.217  0.361E-01  0.361E-01
  11.227  0.325E-01  0.325E-01
  11.237  0.291E-01  0.291E-01
  11.247  0.260E-01  0.260E-01
  11.257  0.232E-01  0.232E-01
  11.267  0.208E-01  0.208E-01
  11.277  0.188E-01  0.188E-01
  11.287  0.172E-01  0.172E-01
  11.297  0.160E-01  0.160E-01
  11.307  0.152E-01  0.152E-01
  11.317  0.148E-01  0.148E-01
  11.327  0.148E-01  0.148E-01
  11.337  0.153E-01  0.153E-01
  11.347  0.161E-01  0.161E-01
  11.357  0.173E-01  0.173E-01
  11.367  0.189E-01  0.189E-01
  11.377  0.208E-01  0.208E-01
  11.387  0.231E-01  0.231E-01
  11.397  0.258E-01  0.258E-01
  11.407  0.288E-01  0.288E-01
  11.417  0.322E-01  0.322E-01
  11.427  0.358E-01  0.358E-01
  11.437  0.397E-01  0.397E-01
  11.447  0.440E-01  0.440E-01
  11.457  0.484E-01  0.484E-01
  11.467  0.530E-01  0.530E-01
  11.477  0.578E-01  0.578E-01
  11.487  0.627E-01  0.627E-01
  11.497  0.677E-01  0.677E-01
  11.507  0.726E-01  0.726E-01
  11.517  0.774E-01  0.774E-01
  11.527  0.821E-01  0.821E-01
  11.537  0.866E-01  0.866E-01
  11.547  0.908E-01  0.908E-01
  11.557  0.946E-01  0.946E-01
  11.567  0.980E-01  0.980E-01
  11.577  0.101E+00  0.101E+00
  11.587  0.103E+00  0.103E+00
  11.597  0.105E+00  0.105E+00
  11.607  0.107E+00  0.107E+00
  11.617  0.108E+00  0.108E+00
  11.627  0.108E+00  0.108E+00
  11.637  0.108E+00  0.108E+00
  11.647  0.108E+00  0.108E+00
  11.657  0.107E+00  0.107E+00
  11.667  0.107E+00  0.107E+00
  11.677  0.106E+00  0.106E+00
  11.687  0.105E+00  0.105E+00
  11.697  0.104E+00  0.104E+00
  11.707  0.103E+00  0.103E+00
  11.717  0.102E+00  0.102E+00
  11.727  0.101E+00  0.101E+00
  11.737  0.995E-01  0.995E-01
  11.747  0.985E-01  0.985E-01
  11.757  0.974E-01  0.974E-01
  11.767  0.963E-01  0.963E-01
  11.777  0.952E-01  0.952E-01
  11.787  0.939E-01  0.939E-01
  11.797  0.925E-01  0.925E-01
  11.807  0.910E-01  0.910E-01
  11.817  0.895E-01  0.895E-01
  11.827  0.878E-01  0.878E-01
  11.837  0.862E-01  0.862E-01
  11.847  0.846E-01  0.846E-01
  11.857  0.830E-01  0.830E-01
  11.867  0.816E-01  0.816E-01
  11.877  0.805E-01  0.805E-01
  11.887  0.795E-01  0.795E-01
  11.897  0.789E-01  0.789E-01
  11.907  0.785E-01  0.785E-01
  11.917  0.785E-01  0.785E-01
  11.927  0.788E-01  0.788E-01
  11.937  0.794E-01  0.794E-01
  11.947  0.802E-01  0.802E-01
  11.957  0.811E-01  0.811E-01
  11.967  0.822E-01  0.822E-01
  11.977  0.832E-01  0.832E-01
  11.987  0.841E-01  0.841E-01
  11.997  0.849E-01  0.849E-01
  12.007  0.853E-01  0.853E-01
  12.017  0.854E-01  0.854E-01
  12.027  0.851E-01  0.851E-01
  12.037  0.843E-01  0.843E-01
  12.047  0.830E-01  0.830E-01
  12.057  0.813E-01  0.813E-01
  12.067  0.791E-01  0.791E-01
  12.077  0.766E-01  0.766E-01
  12.087  0.737E-01  0.737E-01
  12.097  0.706E-01  0.706E-01
  12.107  0.672E-01  0.672E-01
  12.117  0.639E-01  0.639E-01
  12.127  0.605E-01  0.605E-01
  12.137  0.572E-01  0.572E-01
  12.147  0.540E-01  0.540E-01
  12.157  0.511E-01  0.511E-01
  12.167  0.486E-01  0.486E-01
  12.177  0.463E-01  0.463E-01
  12.187  0.444E-01  0.444E-01
  12.197  0.429E-01  0.429E-01
  12.207  0.419E-01  0.419E-01
  12.217  0.412E-01  0.412E-01
  12.227  0.409E-01  0.409E-01
  12.237  0.409E-01  0.409E-01
  12.247  0.413E-01  0.413E-01
  12.257  0.420E-01  0.420E-01
  12.267  0.430E-01  0.430E-01
  12.277  0.442E-01  0.442E-01
  12.287  0.455E-01  0.455E-01
  12.297  0.469E-01  0.469E-01
  12.307  0.484E-01  0.484E-01
  12.317  0.498E-01  0.498E-01
  12.327  0.512E-01  0.512E-01
  12.337  0.525E-01  0.525E-01
  12.347  0.536E-01  0.536E-01
  12.357  0.545E-01  0.545E-01
  12.367  0.552E-01  0.552E-01
  12.377  0.556E-01  0.556E-01
  12.387  0.559E-01  0.559E-01
  12.397  0.559E-01  0.559E-01
  12.407  0.557E-01  0.557E-01
  12.417  0.554E-01  0.554E-01
  12.427  0.550E-01  0.550E-01
  12.437  0.545E-01  0.545E-01
  12.447  0.541E-01  0.541E-01
  12.457  0.537E-01  0.537E-01
  12.467  0.534E-01  0.534E-01
  12.477  0.532E-01  0.532E-01
  12.487  0.531E-01  0.531E-01
  12.497  0.533E-01  0.533E-01
  12.507  0.535E-01  0.535E-01
  12.517  0.539E-01  0.539E-01
  12.527  0.544E-01  0.544E-01
  12.537  0.550E-01  0.550E-01
  12.547  0.556E-01  0.556E-01
  12.557  0.561E-01  0.561E-01
  12.567  0.566E-01  0.566E-01
  12.577  0.570E-01  0.570E-01
  12.587  0.573E-01  0.573E-01
  12.597  0.574E-01  0.574E-01
  12.607  0.574E-01  0.574E-01
  12.617  0.572E-01  0.572E-01
  12.627  0.568E-01  0.568E-01
  12.637  0.563E-01  0.563E-01
  12.647  0.557E-01  0.557E-01
  12.657  0.550E-01  0.550E-01
  12.667  0.542E-01  0.542E-01
  12.677  0.535E-01  0.535E-01
  12.687  0.527E-01  0.527E-01
  12.697  0.520E-01  0.520E-01
  12.707  0.513E-01  0.513E-01
  12.717  0.507E-01  0.507E-01
  12.727  0.502E-01  0.502E-01
  12.737  0.497E-01  0.497E-01
  12.747  0.492E-01  0.492E-01
  12.757  0.488E-01  0.488E-01
  12.767  0.483E-01  0.483E-01
  12.777  0.479E-01  0.479E-01
  12.787  0.475E-01  0.475E-01
  12.797  0.470E-01  0.470E-01
  12.807  0.465E-01  0.465E-01
  12.817  0.460E-01  0.460E-01
  12.827  0.455E-01  0.455E-01
  12.837  0.450E-01  0.450E-01
  12.847  0.444E-01  0.444E-01
  12.857  0.439E-01  0.439E-01
  12.867  0.434E-01  0.434E-01
  12.877  0.430E-01  0.430E-01
  12.887  0.426E-01  0.426E-01
  12.897  0.422E-01  0.422E-01
  12.907  0.419E-01  0.419E-01
  12.917  0.416E-01  0.416E-01
  12.927  0.414E-01  0.414E-01
  12.937  0.412E-01  0.412E-01
  12.947  0.411E-01  0.411E-01
  12.957  0.409E-01  0.409E-01
  12.967  0.409E-01  0.409E-01
  12.977  0.408E-01  0.408E-01
  12.987  0.408E-01  0.408E-01
  12.997  0.408E-01  0.408E-01
  13.007  0.410E-01  0.410E-01
  13.017  0.412E-01  0.412E-01
  13.027  0.416E-01  0.416E-01
  13.037  0.422E-01  0.422E-01
  13.047  0.429E-01  0.429E-01
  13.057  0.439E-01  0.439E-01
  13.067  0.451E-01  0.451E-01
  13.077  0.465E-01  0.465E-01
  13.087  0.481E-01  0.481E-01
  13.097  0.500E-01  0.500E-01
  13.107  0.520E-01  0.520E-01
  13.117  0.542E-01  0.542E-01
  13.127  0.565E-01  0.565E-01
  13.137  0.589E-01  0.589E-01
  13.147  0.612E-01  0.612E-01
  13.157  0.635E-01  0.635E-01
  13.167  0.657E-01  0.657E-01
  13.177  0.677E-01  0.677E-01
  13.187  0.695E-01  0.695E-01
  13.197  0.711E-01  0.711E-01
  13.207  0.724E-01  0.724E-01
  13.217  0.734E-01  0.734E-01
  13.227  0.741E-01  0.741E-01
  13.237  0.744E-01  0.744E-01
  13.247  0.745E-01  0.745E-01
  13.257  0.743E-01  0.743E-01
  13.267  0.739E-01  0.739E-01
  13.277  0.732E-01  0.732E-01
  13.287  0.724E-01  0.724E-01
  13.297  0.714E-01  0.714E-01
  13.307  0.704E-01  0.704E-01
  13.317  0.692E-01  0.692E-01
  13.327  0.681E-01  0.681E-01
  13.337  0.670E-01  0.670E-01
  13.347  0.659E-01  0.659E-01
  13.357  0.648E-01  0.648E-01
  13.367  0.638E-01  0.638E-01
  13.377  0.629E-01  0.629E-01
  13.387  0.620E-01  0.620E-01
  13.397  0.611E-01  0.611E-01
  13.407  0.602E-01  0.602E-01
  13.417  0.594E-01  0.594E-01
  13.427  0.585E-01  0.585E-01
  13.437  0.576E-01  0.576E-01
  13.447  0.566E-01  0.566E-01
  13.457  0.555E-01  0.555E-01
  13.467  0.543E-01  0.543E-01
  13.477  0.531E-01  0.531E-01
  13.487  0.518E-01  0.518E-01
  13.497  0.504E-01  0.504E-01
  13.507  0.489E-01  0.489E-01
  13.517  0.474E-01  0.474E-01
  13.527  0.459E-01  0.459E-01
  13.537  0.445E-01  0.445E-01
  13.547  0.431E-01  0.431E-01
  13.557  0.419E-01  0.419E-01
  13.567  0.409E-01  0.409E-01
  13.577  0.401E-01  0.401E-01
  13.587  0.395E-01  0.395E-01
  13.597  0.393E-01  0.393E-01
  13.607  0.395E-01  0.395E-01
  13.617  0.400E-01  0.400E-01
  13.627  0.409E-01  0.409E-01
  13.637  0.422E-01  0.422E-01
  13.647  0.439E-01  0.439E-01
  13.657  0.460E-01  0.460E-01
  13.667  0.484E-01  0.484E-01
  13.677  0.511E-01  0.511E-01
  13.687  0.539E-01  0.539E-01
  13.697  0.569E-01  0.569E-01
  13.707  0.599E-01  0.599E-01
  13.717  0.629E-01  0.629E-01
  13.727  0.657E-01  0.657E-01
  13.737  0.682E-01  0.682E-01
  13.747  0.704E-01  0.704E-01
  13.757  0.722E-01  0.722E-01
  13.767  0.735E-01  0.735E-01
  13.777  0.743E-01  0.743E-01
  13.787  0.745E-01  0.745E-01
  13.797  0.741E-01  0.741E-01
  13.807  0.731E-01  0.731E-01
  13.817  0.716E-01  0.716E-01
  13.827  0.696E-01  0.696E-01
  13.837  0.672E-01  0.672E-01
  13.847  0.644E-01  0.644E-01
  13.857  0.613E-01  0.613E-01
  13.867  0.580E-01  0.580E-01
  13.877  0.546E-01  0.546E-01
  13.887  0.512E-01  0.512E-01
  13.897  0.477E-01  0.477E-01
  13.907  0.444E-01  0.444E-01
  13.917  0.412E-01  0.412E-01
  13.927  0.382E-01  0.382E-01
  13.937  0.354E-01  0.354E-01
  13.947  0.328E-01  0.328E-01
  13.957  0.305E-01  0.305E-01
  13.967  0.285E-01  0.285E-01
  13.977  0.267E-01  0.267E-01
  13.987  0.252E-01  0.252E-01
  13.997  0.239E-01  0.239E-01
  14.007  0.228E-01  0.228E-01
  14.017  0.220E-01  0.220E-01
  14.027  0.214E-01  0.214E-01
  14.037  0.211E-01  0.211E-01
  14.047  0.209E-01  0.209E-01
  14.057  0.209E-01  0.209E-01
  14.067  0.211E-01  0.211E-01
  14.077  0.215E-01  0.215E-01
  14.087  0.221E-01  0.221E-01
  14.097  0.228E-01  0.228E-01
  14.107  0.236E-01  0.236E-01
  14.117  0.246E-01  0.246E-01
  14.127  0.256E-01  0.256E-01
  14.137  0.268E-01  0.268E-01
  14.147  0.279E-01  0.279E-01
  14.157  0.291E-01  0.291E-01
  14.167  0.303E-01  0.303E-01
  14.177  0.314E-01  0.314E-01
  14.187  0.325E-01  0.325E-01
  14.197  0.336E-01  0.336E-01
  14.207  0.345E-01  0.345E-01
  14.217  0.353E-01  0.353E-01
  14.227  0.361E-01  0.361E-01
  14.237  0.367E-01  0.367E-01
  14.247  0.371E-01  0.371E-01
  14.257  0.375E-01  0.375E-01
  14.267  0.377E-01  0.377E-01
  14.277  0.378E-01  0.378E-01
  14.287  0.377E-01  0.377E-01
  14.297  0.374E-01  0.374E-01
  14.307  0.371E-01  0.371E-01
  14.317  0.365E-01  0.365E-01
  14.327  0.358E-01  0.358E-01
  14.337  0.350E-01  0.350E-01
  14.347  0.340E-01  0.340E-01
  14.357  0.329E-01  0.329E-01
  14.367  0.316E-01  0.316E-01
  14.377  0.302E-01  0.302E-01
  14.387  0.287E-01  0.287E-01
  14.397  0.272E-01  0.272E-01
  14.407  0.256E-01  0.256E-01
  14.417  0.239E-01  0.239E-01
  14.427  0.223E-01  0.223E-01
  14.437  0.208E-01  0.208E-01
  14.447  0.194E-01  0.194E-01
  14.457  0.181E-01  0.181E-01
  14.467  0.170E-01  0.170E-01
  14.477  0.161E-01  0.161E-01
  14.487  0.155E-01  0.155E-01
  14.497  0.151E-01  0.151E-01
  14.507  0.149E-01  0.149E-01
  14.517  0.151E-01  0.151E-01
  14.527  0.156E-01  0.156E-01
  14.537  0.164E-01  0.164E-01
  14.547  0.175E-01  0.175E-01
  14.557  0.189E-01  0.189E-01
  14.567  0.206E-01  0.206E-01
  14.577  0.225E-01  0.225E-01
  14.587  0.246E-01  0.246E-01
  14.597  0.269E-01  0.269E-01
  14.607  0.293E-01  0.293E-01
  14.617  0.318E-01  0.318E-01
  14.627  0.343E-01  0.343E-01
  14.637  0.368E-01  0.368E-01
  14.647  0.392E-01  0.392E-01
  14.657  0.415E-01  0.415E-01
  14.667  0.435E-01  0.435E-01
  14.677  0.454E-01  0.454E-01
  14.687  0.470E-01  0.470E-01
  14.697  0.482E-01  0.482E-01
  14.707  0.491E-01  0.491E-01
  14.717  0.496E-01  0.496E-01
  14.727  0.498E-01  0.498E-01
  14.737  0.495E-01  0.495E-01
  14.747  0.489E-01  0.489E-01
  14.757  0.480E-01  0.480E-01
  14.767  0.467E-01  0.467E-01
  14.777  0.451E-01  0.451E-01
  14.787  0.433E-01  0.433E-01
  14.797  0.412E-01  0.412E-01
  14.807  0.389E-01  0.389E-01
  14.817  0.366E-01  0.366E-01
  14.827  0.341E-01  0.341E-01
  14.837  0.317E-01  0.317E-01
  14.847  0.292E-01  0.292E-01
  14.857  0.268E-01  0.268E-01
  14.867  0.245E-01  0.245E-01
  14.877  0.224E-01  0.224E-01
  14.887  0.204E-01  0.204E-01
  14.897  0.186E-01  0.186E-01
  14.907  0.170E-01  0.170E-01
  14.917  0.156E-01  0.156E-01
  14.927  0.144E-01  0.144E-01
  14.937  0.136E-01  0.136E-01
  14.947  0.129E-01  0.129E-01
  14.957  0.125E-01  0.125E-01
  14.967  0.123E-01  0.123E-01
  14.977  0.123E-01  0.123E-01
  14.987  0.125E-01  0.125E-01
  14.997  0.129E-01  0.129E-01
  15.007  0.135E-01  0.135E-01
  15.017  0.142E-01  0.142E-01
  15.027  0.150E-01  0.150E-01
  15.037  0.159E-01  0.159E-01
  15.047  0.168E-01  0.168E-01
  15.057  0.177E-01  0.177E-01
  15.067  0.187E-01  0.187E-01
  15.077  0.196E-01  0.196E-01
  15.087  0.204E-01  0.204E-01
  15.097  0.211E-01  0.211E-01
  15.107  0.217E-01  0.217E-01
  15.117  0.221E-01  0.221E-01
  15.127  0.224E-01  0.224E-01
  15.137  0.226E-01  0.226E-01
  15.147  0.226E-01  0.226E-01
  15.157  0.224E-01  0.224E-01
  15.167  0.220E-01  0.220E-01
  15.177  0.216E-01  0.216E-01
  15.187  0.210E-01  0.210E-01
  15.197  0.203E-01  0.203E-01
  15.207  0.196E-01  0.196E-01
  15.217  0.188E-01  0.188E-01
  15.227  0.179E-01  0.179E-01
  15.237  0.171E-01  0.171E-01
  15.247  0.164E-01  0.164E-01
  15.257  0.156E-01  0.156E-01
  15.267  0.150E-01  0.150E-01
  15.277  0.144E-01  0.144E-01
  15.287  0.139E-01  0.139E-01
  15.297  0.135E-01  0.135E-01
  15.307  0.132E-01  0.132E-01
  15.317  0.130E-01  0.130E-01
  15.327  0.129E-01  0.129E-01
  15.337  0.128E-01  0.128E-01
  15.347  0.128E-01  0.128E-01
  15.357  0.129E-01  0.129E-01
  15.367  0.130E-01  0.130E-01
  15.377  0.131E-01  0.131E-01
  15.387  0.132E-01  0.132E-01
  15.397  0.133E-01  0.133E-01
  15.407  0.133E-01  0.133E-01
  15.417  0.134E-01  0.134E-01
  15.427  0.135E-01  0.135E-01
  15.437  0.136E-01  0.136E-01
  15.447  0.137E-01  0.137E-01
  15.457  0.138E-01  0.138E-01
  15.467  0.140E-01  0.140E-01
  15.477  0.142E-01  0.142E-01
  15.487  0.145E-01  0.145E-01
  15.497  0.148E-01  0.148E-01
  15.507  0.153E-01  0.153E-01
  15.517  0.159E-01  0.159E-01
  15.527  0.165E-01  0.165E-01
  15.537  0.173E-01  0.173E-01
  15.547  0.182E-01  0.182E-01
  15.557  0.192E-01  0.192E-01
  15.567  0.203E-01  0.203E-01
  15.577  0.214E-01  0.214E-01
  15.587  0.226E-01  0.226E-01
  15.597  0.237E-01  0.237E-01
  15.607  0.249E-01  0.249E-01
  15.617  0.259E-01  0.259E-01
  15.627  0.270E-01  0.270E-01
  15.637  0.279E-01  0.279E-01
  15.647  0.286E-01  0.286E-01
  15.657  0.293E-01  0.293E-01
  15.667  0.298E-01  0.298E-01
  15.677  0.302E-01  0.302E-01
  15.687  0.304E-01  0.304E-01
  15.697  0.305E-01  0.305E-01
  15.707  0.305E-01  0.305E-01
  15.717  0.304E-01  0.304E-01
  15.727  0.303E-01  0.303E-01
  15.737  0.301E-01  0.301E-01
  15.747  0.300E-01  0.300E-01
  15.757  0.298E-01  0.298E-01
  15.767  0.297E-01  0.297E-01
  15.777  0.296E-01  0.296E-01
  15.787  0.296E-01  0.296E-01
  15.797  0.296E-01  0.296E-01
  15.807  0.297E-01  0.297E-01
  15.817  0.298E-01  0.298E-01
  15.827  0.300E-01  0.300E-01
  15.837  0.301E-01  0.301E-01
  15.847  0.303E-01  0.303E-01
  15.857  0.305E-01  0.305E-01
  15.867  0.306E-01  0.306E-01
  15.877  0.306E-01  0.306E-01
  15.887  0.306E-01  0.306E-01
  15.897  0.305E-01  0.305E-01
  15.907  0.303E-01  0.303E-01
  15.917  0.300E-01  0.300E-01
  15.927  0.295E-01  0.295E-01
  15.937  0.289E-01  0.289E-01
  15.947  0.282E-01  0.282E-01
  15.957  0.273E-01  0.273E-01
  15.967  0.263E-01  0.263E-01
  15.977  0.252E-01  0.252E-01
  15.987  0.240E-01  0.240E-01
  15.997  0.226E-01  0.226E-01
  16.007  0.212E-01  0.212E-01
  16.017  0.198E-01  0.198E-01
  16.027  0.183E-01  0.183E-01
  16.037  0.168E-01  0.168E-01
  16.047  0.153E-01  0.153E-01
  16.057  0.138E-01  0.138E-01
  16.067  0.124E-01  0.124E-01
  16.077  0.110E-01  0.110E-01
  16.087  0.975E-02  0.975E-02
  16.097  0.856E-02  0.856E-02
  16.107  0.746E-02  0.746E-02
  16.117  0.648E-02  0.648E-02
  16.127  0.561E-02  0.561E-02
  16.137  0.485E-02  0.485E-02
  16.147  0.422E-02  0.422E-02
  16.157  0.370E-02  0.370E-02
  16.167  0.329E-02  0.329E-02
  16.177  0.300E-02  0.300E-02
  16.187  0.282E-02  0.282E-02
  16.197  0.274E-02  0.274E-02
  16.207  0.277E-02  0.277E-02
  16.217  0.288E-02  0.288E-02
  16.227  0.309E-02  0.309E-02
  16.237  0.338E-02  0.338E-02
  16.247  0.375E-02  0.375E-02
  16.257  0.419E-02  0.419E-02
  16.267  0.470E-02  0.470E-02
  16.277  0.526E-02  0.526E-02
  16.287  0.586E-02  0.586E-02
  16.297  0.651E-02  0.651E-02
  16.307  0.718E-02  0.718E-02
  16.317  0.787E-02  0.787E-02
  16.327  0.857E-02  0.857E-02
  16.337  0.927E-02  0.927E-02
  16.347  0.996E-02  0.996E-02
  16.357  0.106E-01  0.106E-01
  16.367  0.113E-01  0.113E-01
  16.377  0.119E-01  0.119E-01
  16.387  0.125E-01  0.125E-01
  16.397  0.131E-01  0.131E-01
  16.407  0.136E-01  0.136E-01
  16.417  0.141E-01  0.141E-01
  16.427  0.146E-01  0.146E-01
  16.437  0.151E-01  0.151E-01
  16.447  0.157E-01  0.157E-01
  16.457  0.162E-01  0.162E-01
  16.467  0.167E-01  0.167E-01
  16.477  0.173E-01  0.173E-01
  16.487  0.180E-01  0.180E-01
  16.497  0.186E-01  0.186E-01
  16.507  0.193E-01  0.193E-01
  16.517  0.200E-01  0.200E-01
  16.527  0.208E-01  0.208E-01
  16.537  0.215E-01  0.215E-01
  16.547  0.222E-01  0.222E-01
  16.557  0.229E-01  0.229E-01
  16.567  0.235E-01  0.235E-01
  16.577  0.240E-01  0.240E-01
  16.587  0.244E-01  0.244E-01
  16.597  0.247E-01  0.247E-01
  16.607  0.248E-01  0.248E-01
  16.617  0.248E-01  0.248E-01
  16.627  0.246E-01  0.246E-01
  16.637  0.243E-01  0.243E-01
  16.647  0.238E-01  0.238E-01
  16.657  0.232E-01  0.232E-01
  16.667  0.225E-01  0.225E-01
  16.677  0.216E-01  0.216E-01
  16.687  0.208E-01  0.208E-01
  16.697  0.199E-01  0.199E-01
  16.707  0.190E-01  0.190E-01
  16.717  0.181E-01  0.181E-01
  16.727  0.173E-01  0.173E-01
  16.737  0.166E-01  0.166E-01
  16.747  0.160E-01  0.160E-01
  16.757  0.155E-01  0.155E-01
  16.767  0.151E-01  0.151E-01
  16.777  0.149E-01  0.149E-01
  16.787  0.148E-01  0.148E-01
  16.797  0.149E-01  0.149E-01
  16.807  0.150E-01  0.150E-01
  16.817  0.152E-01  0.152E-01
  16.827  0.156E-01  0.156E-01
  16.837  0.159E-01  0.159E-01
  16.847  0.164E-01  0.164E-01
  16.857  0.168E-01  0.168E-01
  16.867  0.172E-01  0.172E-01
  16.877  0.176E-01  0.176E-01
  16.887  0.180E-01  0.180E-01
  16.897  0.184E-01  0.184E-01
  16.907  0.187E-01  0.187E-01
  16.917  0.189E-01  0.189E-01
  16.927  0.191E-01  0.191E-01
  16.937  0.193E-01  0.193E-01
  16.947  0.194E-01  0.194E-01
  16.957  0.194E-01  0.194E-01
  16.967  0.194E-01  0.194E-01
  16.977  0.194E-01  0.194E-01
  16.987  0.193E-01  0.193E-01
  16.997  0.192E-01  0.192E-01
  17.007  0.190E-01  0.190E-01
  17.017  0.188E-01  0.188E-01
  17.027  0.185E-01  0.185E-01
  17.037  0.182E-01  0.182E-01
  17.047  0.179E-01  0.179E-01
  17.057  0.175E-01  0.175E-01
  17.067  0.170E-01  0.170E-01
  17.077  0.165E-01  0.165E-01
  17.087  0.160E-01  0.160E-01
  17.097  0.154E-01  0.154E-01
  17.107  0.148E-01  0.148E-01
  17.117  0.142E-01  0.142E-01
  17.127  0.135E-01  0.135E-01
  17.137  0.129E-01  0.129E-01
  17.147  0.122E-01  0.122E-01
  17.157  0.116E-01  0.116E-01
  17.167  0.111E-01  0.111E-01
  17.177  0.106E-01  0.106E-01
  17.187  0.101E-01  0.101E-01
  17.197  0.979E-02  0.979E-02
  17.207  0.951E-02  0.951E-02
  17.217  0.932E-02  0.932E-02
  17.227  0.923E-02  0.923E-02
  17.237  0.923E-02  0.923E-02
  17.247  0.933E-02  0.933E-02
  17.257  0.953E-02  0.953E-02
  17.267  0.981E-02  0.981E-02
  17.277  0.102E-01  0.102E-01
  17.287  0.106E-01  0.106E-01
  17.297  0.111E-01  0.111E-01
  17.307  0.117E-01  0.117E-01
  17.317  0.123E-01  0.123E-01
  17.327  0.130E-01  0.130E-01
  17.337  0.137E-01  0.137E-01
  17.347  0.144E-01  0.144E-01
  17.357  0.151E-01  0.151E-01
  17.367  0.159E-01  0.159E-01
  17.377  0.166E-01  0.166E-01
  17.387  0.173E-01  0.173E-01
  17.397  0.180E-01  0.180E-01
  17.407  0.187E-01  0.187E-01
  17.417  0.194E-01  0.194E-01
  17.427  0.200E-01  0.200E-01
  17.437  0.205E-01  0.205E-01
  17.447  0.210E-01  0.210E-01
  17.457  0.214E-01  0.214E-01
  17.467  0.217E-01  0.217E-01
  17.477  0.219E-01  0.219E-01
  17.487  0.219E-01  0.219E-01
  17.497  0.219E-01  0.219E-01
  17.507  0.217E-01  0.217E-01
  17.517  0.214E-01  0.214E-01
  17.527  0.209E-01  0.209E-01
  17.537  0.203E-01  0.203E-01
  17.547  0.196E-01  0.196E-01
  17.557  0.188E-01  0.188E-01
  17.567  0.178E-01  0.178E-01
  17.577  0.168E-01  0.168E-01
  17.587  0.157E-01  0.157E-01
  17.597  0.145E-01  0.145E-01
  17.607  0.133E-01  0.133E-01
  17.617  0.121E-01  0.121E-01
  17.627  0.109E-01  0.109E-01
  17.637  0.977E-02  0.977E-02
  17.647  0.866E-02  0.866E-02
  17.657  0.762E-02  0.762E-02
  17.667  0.665E-02  0.665E-02
  17.677  0.576E-02  0.576E-02
  17.687  0.495E-02  0.495E-02
  17.697  0.424E-02  0.424E-02
  17.707  0.361E-02  0.361E-02
  17.717  0.306E-02  0.306E-02
  17.727  0.260E-02  0.260E-02
  17.737  0.221E-02  0.221E-02
  17.747  0.189E-02  0.189E-02
  17.757  0.163E-02  0.163E-02
  17.767  0.143E-02  0.143E-02
  17.777  0.127E-02  0.127E-02
  17.787  0.114E-02  0.114E-02
  17.797  0.105E-02  0.105E-02
  17.807  0.981E-03  0.981E-03
  17.817  0.932E-03  0.932E-03
  17.827  0.898E-03  0.898E-03
  17.837  0.873E-03  0.873E-03
  17.847  0.856E-03  0.856E-03
  17.857  0.843E-03  0.843E-03
  17.867  0.832E-03  0.832E-03
  17.877  0.823E-03  0.823E-03
  17.887  0.814E-03  0.814E-03
  17.897  0.804E-03  0.804E-03
  17.907  0.796E-03  0.796E-03
  17.917  0.788E-03  0.788E-03
  17.927  0.783E-03  0.783E-03
  17.937  0.782E-03  0.782E-03
  17.947  0.786E-03  0.786E-03
  17.957  0.798E-03  0.798E-03
  17.967  0.820E-03  0.820E-03
  17.977  0.855E-03  0.855E-03
  17.987  0.907E-03  0.907E-03
  17.997  0.977E-03  0.977E-03
  18.007  0.107E-02  0.107E-02
  18.017  0.119E-02  0.119E-02
  18.027  0.134E-02  0.134E-02
  18.037  0.151E-02  0.151E-02
  18.047  0.173E-02  0.173E-02
  18.057  0.198E-02  0.198E-02
  18.067  0.227E-02  0.227E-02
  18.077  0.260E-02  0.260E-02
  18.087  0.296E-02  0.296E-02
  18.097  0.337E-02  0.337E-02
  18.107  0.381E-02  0.381E-02
  18.117  0.429E-02  0.429E-02
  18.127  0.479E-02  0.479E-02
  18.137  0.533E-02  0.533E-02
  18.147  0.589E-02  0.589E-02
  18.157  0.647E-02  0.647E-02
  18.167  0.706E-02  0.706E-02
  18.177  0.767E-02  0.767E-02
  18.187  0.829E-02  0.829E-02
  18.197  0.892E-02  0.892E-02
  18.207  0.957E-02  0.957E-02
  18.217  0.102E-01  0.102E-01
  18.227  0.109E-01  0.109E-01
  18.237  0.116E-01  0.116E-01
  18.247  0.122E-01  0.122E-01
  18.257  0.129E-01  0.129E-01
  18.267  0.136E-01  0.136E-01
  18.277  0.144E-01  0.144E-01
  18.287  0.151E-01  0.151E-01
  18.297  0.158E-01  0.158E-01
  18.307  0.165E-01  0.165E-01
  18.317  0.172E-01  0.172E-01
  18.327  0.178E-01  0.178E-01
  18.337  0.185E-01  0.185E-01
  18.347  0.190E-01  0.190E-01
  18.357  0.195E-01  0.195E-01
  18.367  0.199E-01  0.199E-01
  18.377  0.202E-01  0.202E-01
  18.387  0.204E-01  0.204E-01
  18.397  0.205E-01  0.205E-01
  18.407  0.205E-01  0.205E-01
  18.417  0.205E-01  0.205E-01
  18.427  0.203E-01  0.203E-01
  18.437  0.200E-01  0.200E-01
  18.447  0.196E-01  0.196E-01
  18.457  0.192E-01  0.192E-01
  18.467  0.187E-01  0.187E-01
  18.477  0.181E-01  0.181E-01
  18.487  0.175E-01  0.175E-01
  18.497  0.170E-01  0.170E-01
  18.507  0.164E-01  0.164E-01
  18.517  0.158E-01  0.158E-01
  18.527  0.152E-01  0.152E-01
  18.537  0.146E-01  0.146E-01
  18.547  0.141E-01  0.141E-01
  18.557  0.136E-01  0.136E-01
  18.567  0.131E-01  0.131E-01
  18.577  0.127E-01  0.127E-01
  18.587  0.123E-01  0.123E-01
  18.597  0.119E-01  0.119E-01
  18.607  0.116E-01  0.116E-01
  18.617  0.112E-01  0.112E-01
  18.627  0.109E-01  0.109E-01
  18.637  0.106E-01  0.106E-01
  18.647  0.103E-01  0.103E-01
  18.657  0.100E-01  0.100E-01
  18.667  0.971E-02  0.971E-02
  18.677  0.940E-02  0.940E-02
  18.687  0.910E-02  0.910E-02
  18.697  0.879E-02  0.879E-02
  18.707  0.849E-02  0.849E-02
  18.717  0.819E-02  0.819E-02
  18.727  0.789E-02  0.789E-02
  18.737  0.762E-02  0.762E-02
  18.747  0.736E-02  0.736E-02
  18.757  0.712E-02  0.712E-02
  18.767  0.692E-02  0.692E-02
  18.777  0.676E-02  0.676E-02
  18.787  0.665E-02  0.665E-02
  18.797  0.659E-02  0.659E-02
  18.807  0.660E-02  0.660E-02
  18.817  0.668E-02  0.668E-02
  18.827  0.685E-02  0.685E-02
  18.837  0.711E-02  0.711E-02
  18.847  0.748E-02  0.748E-02
  18.857  0.796E-02  0.796E-02
  18.867  0.857E-02  0.857E-02
  18.877  0.931E-02  0.931E-02
  18.887  0.102E-01  0.102E-01
  18.897  0.112E-01  0.112E-01
  18.907  0.124E-01  0.124E-01
  18.917  0.138E-01  0.138E-01
  18.927  0.152E-01  0.152E-01
  18.937  0.168E-01  0.168E-01
  18.947  0.186E-01  0.186E-01
  18.957  0.204E-01  0.204E-01
  18.967  0.222E-01  0.222E-01
  18.977  0.241E-01  0.241E-01
  18.987  0.260E-01  0.260E-01
  18.997  0.278E-01  0.278E-01
  19.007  0.295E-01  0.295E-01
  19.017  0.311E-01  0.311E-01
  19.027  0.325E-01  0.325E-01
  19.037  0.336E-01  0.336E-01
  19.047  0.346E-01  0.346E-01
  19.057  0.352E-01  0.352E-01
  19.067  0.356E-01  0.356E-01
  19.077  0.356E-01  0.356E-01
  19.087  0.354E-01  0.354E-01
  19.097  0.348E-01  0.348E-01
  19.107  0.340E-01  0.340E-01
  19.117  0.329E-01  0.329E-01
  19.127  0.316E-01  0.316E-01
  19.137  0.301E-01  0.301E-01
  19.147  0.284E-01  0.284E-01
  19.157  0.267E-01  0.267E-01
  19.167  0.249E-01  0.249E-01
  19.177  0.231E-01  0.231E-01
  19.187  0.213E-01  0.213E-01
  19.197  0.196E-01  0.196E-01
  19.207  0.180E-01  0.180E-01
  19.217  0.165E-01  0.165E-01
  19.227  0.151E-01  0.151E-01
  19.237  0.139E-01  0.139E-01
  19.247  0.129E-01  0.129E-01
  19.257  0.121E-01  0.121E-01
  19.267  0.115E-01  0.115E-01
  19.277  0.111E-01  0.111E-01
  19.287  0.109E-01  0.109E-01
  19.297  0.109E-01  0.109E-01
  19.307  0.111E-01  0.111E-01
  19.317  0.114E-01  0.114E-01
  19.327  0.119E-01  0.119E-01
  19.337  0.125E-01  0.125E-01
  19.347  0.132E-01  0.132E-01
  19.357  0.141E-01  0.141E-01
  19.367  0.151E-01  0.151E-01
  19.377  0.161E-01  0.161E-01
  19.387  0.172E-01  0.172E-01
  19.397  0.184E-01  0.184E-01
  19.407  0.195E-01  0.195E-01
  19.417  0.207E-01  0.207E-01
  19.427  0.218E-01  0.218E-01
  19.437  0.229E-01  0.229E-01
  19.447  0.240E-01  0.240E-01
  19.457  0.249E-01  0.249E-01
  19.467  0.258E-01  0.258E-01
  19.477  0.265E-01  0.265E-01
  19.487  0.271E-01  0.271E-01
  19.497  0.276E-01  0.276E-01
  19.507  0.279E-01  0.279E-01
  19.517  0.280E-01  0.280E-01
  19.527  0.280E-01  0.280E-01
  19.537  0.278E-01  0.278E-01
  19.547  0.275E-01  0.275E-01
  19.557  0.270E-01  0.270E-01
  19.567  0.264E-01  0.264E-01
  19.577  0.257E-01  0.257E-01
  19.587  0.250E-01  0.250E-01
  19.597  0.241E-01  0.241E-01
  19.607  0.232E-01  0.232E-01
  19.617  0.223E-01  0.223E-01
  19.627  0.213E-01  0.213E-01
  19.637  0.204E-01  0.204E-01
  19.647  0.195E-01  0.195E-01
  19.657  0.187E-01  0.187E-01
  19.667  0.180E-01  0.180E-01
  19.677  0.173E-01  0.173E-01
  19.687  0.167E-01  0.167E-01
  19.697  0.162E-01  0.162E-01
  19.707  0.158E-01  0.158E-01
  19.717  0.154E-01  0.154E-01
  19.727  0.152E-01  0.152E-01
  19.737  0.150E-01  0.150E-01
  19.747  0.149E-01  0.149E-01
  19.757  0.148E-01  0.148E-01
  19.767  0.148E-01  0.148E-01
  19.777  0.147E-01  0.147E-01
  19.787  0.147E-01  0.147E-01
  19.797  0.147E-01  0.147E-01
  19.807  0.146E-01  0.146E-01
  19.817  0.146E-01  0.146E-01
  19.827  0.145E-01  0.145E-01
  19.837  0.144E-01  0.144E-01
  19.847  0.143E-01  0.143E-01
  19.857  0.141E-01  0.141E-01
  19.867  0.140E-01  0.140E-01
  19.877  0.138E-01  0.138E-01
  19.887  0.137E-01  0.137E-01
  19.897  0.136E-01  0.136E-01
  19.907  0.135E-01  0.135E-01
  19.917  0.135E-01  0.135E-01
  19.927  0.135E-01  0.135E-01
  19.937  0.135E-01  0.135E-01
  19.947  0.137E-01  0.137E-01
  19.957  0.139E-01  0.139E-01
  19.967  0.141E-01  0.141E-01
  19.977  0.144E-01  0.144E-01
  19.987  0.147E-01  0.147E-01
  19.997  0.150E-01  0.150E-01
  20.007  0.154E-01  0.154E-01
  20.017  0.157E-01  0.157E-01
  20.027  0.159E-01  0.159E-01
  20.037  0.162E-01  0.162E-01
  20.047  0.163E-01  0.163E-01
  20.057  0.164E-01  0.164E-01
  20.067  0.163E-01  0.163E-01
  20.077  0.162E-01  0.162E-01
  20.087  0.159E-01  0.159E-01
  20.097  0.156E-01  0.156E-01
  20.107  0.151E-01  0.151E-01
  20.117  0.145E-01  0.145E-01
  20.127  0.139E-01  0.139E-01
  20.137  0.132E-01  0.132E-01
  20.147  0.124E-01  0.124E-01
  20.157  0.117E-01  0.117E-01
  20.167  0.109E-01  0.109E-01
  20.177  0.101E-01  0.101E-01
  20.187  0.926E-02  0.926E-02
  20.197  0.851E-02  0.851E-02
  20.207  0.779E-02  0.779E-02
  20.217  0.713E-02  0.713E-02
  20.227  0.653E-02  0.653E-02
  20.237  0.600E-02  0.600E-02
  20.247  0.554E-02  0.554E-02
  20.257  0.514E-02  0.514E-02
  20.267  0.480E-02  0.480E-02
  20.277  0.453E-02  0.453E-02
  20.287  0.431E-02  0.431E-02
  20.297  0.413E-02  0.413E-02
  20.307  0.399E-02  0.399E-02
  20.317  0.389E-02  0.389E-02
  20.327  0.380E-02  0.380E-02
  20.337  0.372E-02  0.372E-02
  20.347  0.366E-02  0.366E-02
  20.357  0.359E-02  0.359E-02
  20.367  0.351E-02  0.351E-02
  20.377  0.343E-02  0.343E-02
  20.387  0.334E-02  0.334E-02
  20.397  0.324E-02  0.324E-02
  20.407  0.312E-02  0.312E-02
  20.417  0.300E-02  0.300E-02
  20.427  0.287E-02  0.287E-02
  20.437  0.274E-02  0.274E-02
  20.447  0.261E-02  0.261E-02
  20.457  0.249E-02  0.249E-02
  20.467  0.238E-02  0.238E-02
  20.477  0.228E-02  0.228E-02
  20.487  0.220E-02  0.220E-02
  20.497  0.214E-02  0.214E-02
  20.507  0.210E-02  0.210E-02
  20.517  0.209E-02  0.209E-02
  20.527  0.210E-02  0.210E-02
  20.537  0.213E-02  0.213E-02
  20.547  0.219E-02  0.219E-02
  20.557  0.227E-02  0.227E-02
  20.567  0.236E-02  0.236E-02
  20.577  0.246E-02  0.246E-02
  20.587  0.257E-02  0.257E-02
  20.597  0.269E-02  0.269E-02
  20.607  0.279E-02  0.279E-02
  20.617  0.290E-02  0.290E-02
  20.627  0.298E-02  0.298E-02
  20.637  0.306E-02  0.306E-02
  20.647  0.311E-02  0.311E-02
  20.657  0.314E-02  0.314E-02
  20.667  0.314E-02  0.314E-02
  20.677  0.312E-02  0.312E-02
  20.687  0.308E-02  0.308E-02
  20.697  0.302E-02  0.302E-02
  20.707  0.294E-02  0.294E-02
  20.717  0.284E-02  0.284E-02
  20.727  0.274E-02  0.274E-02
  20.737  0.263E-02  0.263E-02
  20.747  0.253E-02  0.253E-02
  20.757  0.244E-02  0.244E-02
  20.767  0.236E-02  0.236E-02
  20.777  0.231E-02  0.231E-02
  20.787  0.228E-02  0.228E-02
  20.797  0.229E-02  0.229E-02
  20.807  0.233E-02  0.233E-02
  20.817  0.241E-02  0.241E-02
  20.827  0.253E-02  0.253E-02
  20.837  0.269E-02  0.269E-02
  20.847  0.289E-02  0.289E-02
  20.857  0.313E-02  0.313E-02
  20.867  0.340E-02  0.340E-02
  20.877  0.371E-02  0.371E-02
  20.887  0.404E-02  0.404E-02
  20.897  0.438E-02  0.438E-02
  20.907  0.474E-02  0.474E-02
  20.917  0.510E-02  0.510E-02
  20.927  0.545E-02  0.545E-02
  20.937  0.580E-02  0.580E-02
  20.947  0.613E-02  0.613E-02
  20.957  0.643E-02  0.643E-02
  20.967  0.671E-02  0.671E-02
  20.977  0.696E-02  0.696E-02
  20.987  0.718E-02  0.718E-02
  20.997  0.737E-02  0.737E-02
  21.007  0.752E-02  0.752E-02
  21.017  0.765E-02  0.765E-02
  21.027  0.776E-02  0.776E-02
  21.037  0.784E-02  0.784E-02
  21.047  0.790E-02  0.790E-02
  21.057  0.794E-02  0.794E-02
  21.067  0.798E-02  0.798E-02
  21.077  0.800E-02  0.800E-02
  21.087  0.801E-02  0.801E-02
  21.097  0.801E-02  0.801E-02
  21.107  0.800E-02  0.800E-02
  21.117  0.799E-02  0.799E-02
  21.127  0.796E-02  0.796E-02
  21.137  0.792E-02  0.792E-02
  21.147  0.787E-02  0.787E-02
  21.157  0.781E-02  0.781E-02
  21.167  0.774E-02  0.774E-02
  21.177  0.765E-02  0.765E-02
  21.187  0.755E-02  0.755E-02
  21.197  0.744E-02  0.744E-02
  21.207  0.733E-02  0.733E-02
  21.217  0.721E-02  0.721E-02
  21.227  0.709E-02  0.709E-02
  21.237  0.698E-02  0.698E-02
  21.247  0.687E-02  0.687E-02
  21.257  0.677E-02  0.677E-02
  21.267  0.669E-02  0.669E-02
  21.277  0.662E-02  0.662E-02
  21.287  0.657E-02  0.657E-02
  21.297  0.653E-02  0.653E-02
  21.307  0.651E-02  0.651E-02
  21.317  0.650E-02  0.650E-02
  21.327  0.650E-02  0.650E-02
  21.337  0.650E-02  0.650E-02
  21.347  0.650E-02  0.650E-02
  21.357  0.649E-02  0.649E-02
  21.367  0.647E-02  0.647E-02
  21.377  0.643E-02  0.643E-02
  21.387  0.637E-02  0.637E-02
  21.397  0.627E-02  0.627E-02
  21.407  0.615E-02  0.615E-02
  21.417  0.599E-02  0.599E-02
  21.427  0.580E-02  0.580E-02
  21.437  0.558E-02  0.558E-02
  21.447  0.533E-02  0.533E-02
  21.457  0.505E-02  0.505E-02
  21.467  0.476E-02  0.476E-02
  21.477  0.444E-02  0.444E-02
  21.487  0.413E-02  0.413E-02
  21.497  0.380E-02  0.380E-02
  21.507  0.349E-02  0.349E-02
  21.517  0.318E-02  0.318E-02
  21.527  0.289E-02  0.289E-02
  21.537  0.263E-02  0.263E-02
  21.547  0.238E-02  0.238E-02
  21.557  0.217E-02  0.217E-02
  21.567  0.199E-02  0.199E-02
  21.577  0.184E-02  0.184E-02
  21.587  0.172E-02  0.172E-02
  21.597  0.164E-02  0.164E-02
  21.607  0.158E-02  0.158E-02
  21.617  0.156E-02  0.156E-02
  21.627  0.156E-02  0.156E-02
  21.637  0.159E-02  0.159E-02
  21.647  0.164E-02  0.164E-02
  21.657  0.171E-02  0.171E-02
  21.667  0.180E-02  0.180E-02
  21.677  0.190E-02  0.190E-02
  21.687  0.202E-02  0.202E-02
  21.697  0.215E-02  0.215E-02
  21.707  0.229E-02  0.229E-02
  21.717  0.243E-02  0.243E-02
  21.727  0.258E-02  0.258E-02
  21.737  0.273E-02  0.273E-02
  21.747  0.288E-02  0.288E-02
  21.757  0.304E-02  0.304E-02
  21.767  0.318E-02  0.318E-02
  21.777  0.333E-02  0.333E-02
  21.787  0.346E-02  0.346E-02
  21.797  0.358E-02  0.358E-02
  21.807  0.369E-02  0.369E-02
  21.817  0.378E-02  0.378E-02
  21.827  0.386E-02  0.386E-02
  21.837  0.391E-02  0.391E-02
  21.847  0.394E-02  0.394E-02
  21.857  0.395E-02  0.395E-02
  21.867  0.394E-02  0.394E-02
  21.877  0.391E-02  0.391E-02
  21.887  0.386E-02  0.386E-02
  21.897  0.379E-02  0.379E-02
  21.907  0.371E-02  0.371E-02
  21.917  0.362E-02  0.362E-02
  21.927  0.352E-02  0.352E-02
  21.937  0.342E-02  0.342E-02
  21.947  0.332E-02  0.332E-02
  21.957  0.323E-02  0.323E-02
  21.967  0.315E-02  0.315E-02
  21.977  0.307E-02  0.307E-02
  21.987  0.302E-02  0.302E-02
  21.997  0.297E-02  0.297E-02
  22.007  0.295E-02  0.295E-02
  22.017  0.294E-02  0.294E-02
  22.027  0.295E-02  0.295E-02
  22.037  0.298E-02  0.298E-02
  22.047  0.302E-02  0.302E-02
  22.057  0.307E-02  0.307E-02
  22.067  0.312E-02  0.312E-02
  22.077  0.319E-02  0.319E-02
  22.087  0.325E-02  0.325E-02
  22.097  0.331E-02  0.331E-02
  22.107  0.337E-02  0.337E-02
  22.117  0.342E-02  0.342E-02
  22.127  0.346E-02  0.346E-02
  22.137  0.349E-02  0.349E-02
  22.147  0.351E-02  0.351E-02
  22.157  0.351E-02  0.351E-02
  22.167  0.350E-02  0.350E-02
  22.177  0.347E-02  0.347E-02
  22.187  0.344E-02  0.344E-02
  22.197  0.339E-02  0.339E-02
  22.207  0.334E-02  0.334E-02
  22.217  0.328E-02  0.328E-02
  22.227  0.322E-02  0.322E-02
  22.237  0.316E-02  0.316E-02
  22.247  0.309E-02  0.309E-02
  22.257  0.303E-02  0.303E-02
  22.267  0.298E-02  0.298E-02
  22.277  0.293E-02  0.293E-02
  22.287  0.289E-02  0.289E-02
  22.297  0.286E-02  0.286E-02
  22.307  0.284E-02  0.284E-02
  22.317  0.282E-02  0.282E-02
  22.327  0.281E-02  0.281E-02
  22.337  0.281E-02  0.281E-02
  22.347  0.281E-02  0.281E-02
  22.357  0.281E-02  0.281E-02
  22.367  0.282E-02  0.282E-02
  22.377  0.283E-02  0.283E-02
  22.387  0.283E-02  0.283E-02
  22.397  0.283E-02  0.283E-02
  22.407  0.283E-02  0.283E-02
  22.417  0.282E-02  0.282E-02
  22.427  0.279E-02  0.279E-02
  22.437  0.276E-02  0.276E-02
  22.447  0.272E-02  0.272E-02
  22.457  0.267E-02  0.267E-02
  22.467  0.260E-02  0.260E-02
  22.477  0.253E-02  0.253E-02
  22.487  0.245E-02  0.245E-02
  22.497  0.235E-02  0.235E-02
  22.507  0.226E-02  0.226E-02
  22.517  0.216E-02  0.216E-02
  22.527  0.206E-02  0.206E-02
  22.537  0.196E-02  0.196E-02
  22.547  0.187E-02  0.187E-02
  22.557  0.179E-02  0.179E-02
  22.567  0.173E-02  0.173E-02
  22.577  0.168E-02  0.168E-02
  22.587  0.165E-02  0.165E-02
  22.597  0.165E-02  0.165E-02
  22.607  0.167E-02  0.167E-02
  22.617  0.171E-02  0.171E-02
  22.627  0.179E-02  0.179E-02
  22.637  0.189E-02  0.189E-02
  22.647  0.202E-02  0.202E-02
  22.657  0.217E-02  0.217E-02
  22.667  0.235E-02  0.235E-02
  22.677  0.254E-02  0.254E-02
  22.687  0.275E-02  0.275E-02
  22.697  0.298E-02  0.298E-02
  22.707  0.321E-02  0.321E-02
  22.717  0.345E-02  0.345E-02
  22.727  0.368E-02  0.368E-02
  22.737  0.391E-02  0.391E-02
  22.747  0.414E-02  0.414E-02
  22.757  0.436E-02  0.436E-02
  22.767  0.456E-02  0.456E-02
  22.777  0.476E-02  0.476E-02
  22.787  0.494E-02  0.494E-02
  22.797  0.511E-02  0.511E-02
  22.807  0.528E-02  0.528E-02
  22.817  0.543E-02  0.543E-02
  22.827  0.558E-02  0.558E-02
  22.837  0.573E-02  0.573E-02
  22.847  0.587E-02  0.587E-02
  22.857  0.600E-02  0.600E-02
  22.867  0.614E-02  0.614E-02
  22.877  0.627E-02  0.627E-02
  22.887  0.639E-02  0.639E-02
  22.897  0.650E-02  0.650E-02
  22.907  0.661E-02  0.661E-02
  22.917  0.669E-02  0.669E-02
  22.927  0.676E-02  0.676E-02
  22.937  0.680E-02  0.680E-02
  22.947  0.682E-02  0.682E-02
  22.957  0.680E-02  0.680E-02
  22.967  0.676E-02  0.676E-02
  22.977  0.669E-02  0.669E-02
  22.987  0.659E-02  0.659E-02
  22.997  0.646E-02  0.646E-02
  23.007  0.631E-02  0.631E-02
  23.017  0.615E-02  0.615E-02
  23.027  0.598E-02  0.598E-02
  23.037  0.581E-02  0.581E-02
  23.047  0.565E-02  0.565E-02
  23.057  0.550E-02  0.550E-02
  23.067  0.538E-02  0.538E-02
  23.077  0.529E-02  0.529E-02
  23.087  0.523E-02  0.523E-02
  23.097  0.521E-02  0.521E-02
  23.107  0.524E-02  0.524E-02
  23.117  0.531E-02  0.531E-02
  23.127  0.542E-02  0.542E-02
  23.137  0.556E-02  0.556E-02
  23.147  0.574E-02  0.574E-02
  23.157  0.593E-02  0.593E-02
  23.167  0.615E-02  0.615E-02
  23.177  0.637E-02  0.637E-02
  23.187  0.659E-02  0.659E-02
  23.197  0.680E-02  0.680E-02
  23.207  0.698E-02  0.698E-02
  23.217  0.713E-02  0.713E-02
  23.227  0.725E-02  0.725E-02
  23.237  0.732E-02  0.732E-02
  23.247  0.735E-02  0.735E-02
  23.257  0.733E-02  0.733E-02
  23.267  0.725E-02  0.725E-02
  23.277  0.713E-02  0.713E-02
  23.287  0.696E-02  0.696E-02
  23.297  0.675E-02  0.675E-02
  23.307  0.651E-02  0.651E-02
  23.317  0.623E-02  0.623E-02
  23.327  0.593E-02  0.593E-02
  23.337  0.562E-02  0.562E-02
  23.347  0.529E-02  0.529E-02
  23.357  0.497E-02  0.497E-02
  23.367  0.464E-02  0.464E-02
  23.377  0.433E-02  0.433E-02
  23.387  0.403E-02  0.403E-02
  23.397  0.375E-02  0.375E-02
  23.407  0.349E-02  0.349E-02
  23.417  0.324E-02  0.324E-02
  23.427  0.302E-02  0.302E-02
  23.437  0.282E-02  0.282E-02
  23.447  0.264E-02  0.264E-02
  23.457  0.247E-02  0.247E-02
  23.467  0.232E-02  0.232E-02
  23.477  0.219E-02  0.219E-02
  23.487  0.207E-02  0.207E-02
  23.497  0.196E-02  0.196E-02
  23.507  0.186E-02  0.186E-02
  23.517  0.177E-02  0.177E-02
  23.527  0.169E-02  0.169E-02
  23.537  0.163E-02  0.163E-02
  23.547  0.157E-02  0.157E-02
  23.557  0.152E-02  0.152E-02
  23.567  0.149E-02  0.149E-02
  23.577  0.147E-02  0.147E-02
  23.587  0.146E-02  0.146E-02
  23.597  0.147E-02  0.147E-02
  23.607  0.149E-02  0.149E-02
  23.617  0.153E-02  0.153E-02
  23.627  0.158E-02  0.158E-02
  23.637  0.165E-02  0.165E-02
  23.647  0.173E-02  0.173E-02
  23.657  0.182E-02  0.182E-02
  23.667  0.193E-02  0.193E-02
  23.677  0.203E-02  0.203E-02
  23.687  0.215E-02  0.215E-02
  23.697  0.227E-02  0.227E-02
  23.707  0.239E-02  0.239E-02
  23.717  0.251E-02  0.251E-02
  23.727  0.263E-02  0.263E-02
  23.737  0.274E-02  0.274E-02
  23.747  0.286E-02  0.286E-02
  23.757  0.298E-02  0.298E-02
  23.767  0.310E-02  0.310E-02
  23.777  0.322E-02  0.322E-02
  23.787  0.335E-02  0.335E-02
  23.797  0.348E-02  0.348E-02
  23.807  0.362E-02  0.362E-02
  23.817  0.377E-02  0.377E-02
  23.827  0.393E-02  0.393E-02
  23.837  0.410E-02  0.410E-02
  23.847  0.428E-02  0.428E-02
  23.857  0.446E-02  0.446E-02
  23.867  0.465E-02  0.465E-02
  23.877  0.484E-02  0.484E-02
  23.887  0.503E-02  0.503E-02
  23.897  0.520E-02  0.520E-02
  23.907  0.536E-02  0.536E-02
  23.917  0.551E-02  0.551E-02
  23.927  0.564E-02  0.564E-02
  23.937  0.574E-02  0.574E-02
  23.947  0.581E-02  0.581E-02
  23.957  0.586E-02  0.586E-02
  23.967  0.589E-02  0.589E-02
  23.977  0.589E-02  0.589E-02
  23.987  0.587E-02  0.587E-02
  23.997  0.583E-02  0.583E-02
  24.007  0.578E-02  0.578E-02
  24.017  0.572E-02  0.572E-02
  24.027  0.565E-02  0.565E-02
  24.037  0.559E-02  0.559E-02
  24.047  0.554E-02  0.554E-02
  24.057  0.549E-02  0.549E-02
  24.067  0.546E-02  0.546E-02
  24.077  0.544E-02  0.544E-02
  24.087  0.544E-02  0.544E-02
  24.097  0.546E-02  0.546E-02
  24.107  0.549E-02  0.549E-02
  24.117  0.554E-02  0.554E-02
  24.127  0.561E-02  0.561E-02
  24.137  0.568E-02  0.568E-02
  24.147  0.577E-02  0.577E-02
  24.157  0.586E-02  0.586E-02
  24.167  0.595E-02  0.595E-02
  24.177  0.604E-02  0.604E-02
  24.187  0.612E-02  0.612E-02
  24.197  0.620E-02  0.620E-02
  24.207  0.626E-02  0.626E-02
  24.217  0.630E-02  0.630E-02
  24.227  0.633E-02  0.633E-02
  24.237  0.633E-02  0.633E-02
  24.247  0.631E-02  0.631E-02
  24.257  0.626E-02  0.626E-02
  24.267  0.619E-02  0.619E-02
  24.277  0.610E-02  0.610E-02
  24.287  0.598E-02  0.598E-02
  24.297  0.585E-02  0.585E-02
  24.307  0.570E-02  0.570E-02
  24.317  0.554E-02  0.554E-02
  24.327  0.537E-02  0.537E-02
  24.337  0.520E-02  0.520E-02
  24.347  0.504E-02  0.504E-02
  24.357  0.488E-02  0.488E-02
  24.367  0.474E-02  0.474E-02
  24.377  0.461E-02  0.461E-02
  24.387  0.449E-02  0.449E-02
  24.397  0.440E-02  0.440E-02
  24.407  0.432E-02  0.432E-02
  24.417  0.426E-02  0.426E-02
  24.427  0.421E-02  0.421E-02
  24.437  0.418E-02  0.418E-02
  24.447  0.416E-02  0.416E-02
  24.457  0.415E-02  0.415E-02
  24.467  0.414E-02  0.414E-02
  24.477  0.413E-02  0.413E-02
  24.487  0.413E-02  0.413E-02
  24.497  0.412E-02  0.412E-02
  24.507  0.411E-02  0.411E-02
  24.517  0.409E-02  0.409E-02
  24.527  0.408E-02  0.408E-02
  24.537  0.406E-02  0.406E-02
  24.547  0.403E-02  0.403E-02
  24.557  0.401E-02  0.401E-02
  24.567  0.399E-02  0.399E-02
  24.577  0.397E-02  0.397E-02
  24.587  0.395E-02  0.395E-02
  24.597  0.395E-02  0.395E-02
  24.607  0.395E-02  0.395E-02
  24.617  0.397E-02  0.397E-02
  24.627  0.400E-02  0.400E-02
  24.637  0.405E-02  0.405E-02
  24.647  0.411E-02  0.411E-02
  24.657  0.419E-02  0.419E-02
  24.667  0.430E-02  0.430E-02
  24.677  0.442E-02  0.442E-02
  24.687  0.456E-02  0.456E-02
  24.697  0.472E-02  0.472E-02
  24.707  0.489E-02  0.489E-02
  24.717  0.508E-02  0.508E-02
  24.727  0.528E-02  0.528E-02
  24.737  0.549E-02  0.549E-02
  24.747  0.571E-02  0.571E-02
  24.757  0.593E-02  0.593E-02
  24.767  0.615E-02  0.615E-02
  24.777  0.637E-02  0.637E-02
  24.787  0.659E-02  0.659E-02
  24.797  0.679E-02  0.679E-02
  24.807  0.699E-02  0.699E-02
  24.817  0.717E-02  0.717E-02
  24.827  0.734E-02  0.734E-02
  24.837  0.750E-02  0.750E-02
  24.847  0.765E-02  0.765E-02
  24.857  0.779E-02  0.779E-02
  24.867  0.791E-02  0.791E-02
  24.877  0.802E-02  0.802E-02
  24.887  0.812E-02  0.812E-02
  24.897  0.820E-02  0.820E-02
  24.907  0.827E-02  0.827E-02
  24.917  0.832E-02  0.832E-02
  24.927  0.836E-02  0.836E-02
  24.937  0.837E-02  0.837E-02
  24.947  0.836E-02  0.836E-02
  24.957  0.833E-02  0.833E-02
  24.967  0.826E-02  0.826E-02
  24.977  0.816E-02  0.816E-02
  24.987  0.803E-02  0.803E-02
  24.997  0.786E-02  0.786E-02
  25.007  0.766E-02  0.766E-02
  25.017  0.743E-02  0.743E-02
  25.027  0.717E-02  0.717E-02
  25.037  0.688E-02  0.688E-02
  25.047  0.657E-02  0.657E-02
  25.057  0.625E-02  0.625E-02
  25.067  0.591E-02  0.591E-02
  25.077  0.557E-02  0.557E-02
  25.087  0.523E-02  0.523E-02
  25.097  0.491E-02  0.491E-02
  25.107  0.459E-02  0.459E-02
  25.117  0.430E-02  0.430E-02
  25.127  0.403E-02  0.403E-02
  25.137  0.379E-02  0.379E-02
  25.147  0.358E-02  0.358E-02
  25.157  0.341E-02  0.341E-02
  25.167  0.327E-02  0.327E-02
  25.177  0.317E-02  0.317E-02
  25.187  0.309E-02  0.309E-02
  25.197  0.306E-02  0.306E-02
  25.207  0.305E-02  0.305E-02
  25.217  0.307E-02  0.307E-02
  25.227  0.312E-02  0.312E-02
  25.237  0.318E-02  0.318E-02
  25.247  0.327E-02  0.327E-02
  25.257  0.337E-02  0.337E-02
  25.267  0.348E-02  0.348E-02
  25.277  0.360E-02  0.360E-02
  25.287  0.372E-02  0.372E-02
  25.297  0.384E-02  0.384E-02
  25.307  0.396E-02  0.396E-02
  25.317  0.407E-02  0.407E-02
  25.327  0.417E-02  0.417E-02
  25.337  0.426E-02  0.426E-02
  25.347  0.434E-02  0.434E-02
  25.357  0.440E-02  0.440E-02
  25.367  0.444E-02  0.444E-02
  25.377  0.446E-02  0.446E-02
  25.387  0.446E-02  0.446E-02
  25.397  0.444E-02  0.444E-02
  25.407  0.440E-02  0.440E-02
  25.417  0.434E-02  0.434E-02
  25.427  0.427E-02  0.427E-02
  25.437  0.418E-02  0.418E-02
  25.447  0.408E-02  0.408E-02
  25.457  0.396E-02  0.396E-02
  25.467  0.384E-02  0.384E-02
  25.477  0.372E-02  0.372E-02
  25.487  0.359E-02  0.359E-02
  25.497  0.346E-02  0.346E-02
  25.507  0.333E-02  0.333E-02
  25.517  0.320E-02  0.320E-02
  25.527  0.307E-02  0.307E-02
  25.537  0.295E-02  0.295E-02
  25.547  0.283E-02  0.283E-02
  25.557  0.272E-02  0.272E-02
  25.567  0.261E-02  0.261E-02
  25.577  0.250E-02  0.250E-02
  25.587  0.239E-02  0.239E-02
  25.597  0.229E-02  0.229E-02
  25.607  0.219E-02  0.219E-02
  25.617  0.210E-02  0.210E-02
  25.627  0.201E-02  0.201E-02
  25.637  0.193E-02  0.193E-02
  25.647  0.186E-02  0.186E-02
  25.657  0.179E-02  0.179E-02
  25.667  0.174E-02  0.174E-02
  25.677  0.169E-02  0.169E-02
  25.687  0.166E-02  0.166E-02
  25.697  0.165E-02  0.165E-02
  25.707  0.164E-02  0.164E-02
  25.717  0.166E-02  0.166E-02
  25.727  0.169E-02  0.169E-02
  25.737  0.174E-02  0.174E-02
  25.747  0.181E-02  0.181E-02
  25.757  0.189E-02  0.189E-02
  25.767  0.199E-02  0.199E-02
  25.777  0.210E-02  0.210E-02
  25.787  0.223E-02  0.223E-02
  25.797  0.238E-02  0.238E-02
  25.807  0.253E-02  0.253E-02
  25.817  0.269E-02  0.269E-02
  25.827  0.286E-02  0.286E-02
  25.837  0.304E-02  0.304E-02
  25.847  0.322E-02  0.322E-02
  25.857  0.340E-02  0.340E-02
  25.867  0.359E-02  0.359E-02
  25.877  0.377E-02  0.377E-02
  25.887  0.394E-02  0.394E-02
  25.897  0.411E-02  0.411E-02
  25.907  0.427E-02  0.427E-02
  25.917  0.443E-02  0.443E-02
  25.927  0.457E-02  0.457E-02
  25.937  0.471E-02  0.471E-02
  25.947  0.483E-02  0.483E-02
  25.957  0.495E-02  0.495E-02
  25.967  0.505E-02  0.505E-02
  25.977  0.514E-02  0.514E-02
  25.987  0.521E-02  0.521E-02
  25.997  0.528E-02  0.528E-02
  26.007  0.533E-02  0.533E-02
  26.017  0.536E-02  0.536E-02
  26.027  0.538E-02  0.538E-02
  26.037  0.538E-02  0.538E-02
  26.047  0.536E-02  0.536E-02
  26.057  0.532E-02  0.532E-02
  26.067  0.527E-02  0.527E-02
  26.077  0.519E-02  0.519E-02
  26.087  0.509E-02  0.509E-02
  26.097  0.497E-02  0.497E-02
  26.107  0.483E-02  0.483E-02
  26.117  0.467E-02  0.467E-02
  26.127  0.450E-02  0.450E-02
  26.137  0.431E-02  0.431E-02
  26.147  0.412E-02  0.412E-02
  26.157  0.391E-02  0.391E-02
  26.167  0.370E-02  0.370E-02
  26.177  0.349E-02  0.349E-02
  26.187  0.328E-02  0.328E-02
  26.197  0.308E-02  0.308E-02
  26.207  0.288E-02  0.288E-02
  26.217  0.269E-02  0.269E-02
  26.227  0.251E-02  0.251E-02
  26.237  0.234E-02  0.234E-02
  26.247  0.219E-02  0.219E-02
  26.257  0.204E-02  0.204E-02
  26.267  0.191E-02  0.191E-02
  26.277  0.178E-02  0.178E-02
  26.287  0.167E-02  0.167E-02
  26.297  0.156E-02  0.156E-02
  26.307  0.147E-02  0.147E-02
  26.317  0.138E-02  0.138E-02
  26.327  0.130E-02  0.130E-02
  26.337  0.122E-02  0.122E-02
  26.347  0.114E-02  0.114E-02
  26.357  0.108E-02  0.108E-02
  26.367  0.101E-02  0.101E-02
  26.377  0.947E-03  0.947E-03
  26.387  0.888E-03  0.888E-03
  26.397  0.831E-03  0.831E-03
  26.407  0.778E-03  0.778E-03
  26.417  0.728E-03  0.728E-03
  26.427  0.683E-03  0.683E-03
  26.437  0.642E-03  0.642E-03
  26.447  0.606E-03  0.606E-03
  26.457  0.576E-03  0.576E-03
  26.467  0.553E-03  0.553E-03
  26.477  0.539E-03  0.539E-03
  26.487  0.533E-03  0.533E-03
  26.497  0.538E-03  0.538E-03
  26.507  0.555E-03  0.555E-03
  26.517  0.585E-03  0.585E-03
  26.527  0.629E-03  0.629E-03
  26.537  0.688E-03  0.688E-03
  26.547  0.763E-03  0.763E-03
  26.557  0.854E-03  0.854E-03
  26.567  0.962E-03  0.962E-03
  26.577  0.109E-02  0.109E-02
  26.587  0.123E-02  0.123E-02
  26.597  0.139E-02  0.139E-02
  26.607  0.156E-02  0.156E-02
  26.617  0.174E-02  0.174E-02
  26.627  0.193E-02  0.193E-02
  26.637  0.213E-02  0.213E-02
  26.647  0.233E-02  0.233E-02
  26.657  0.253E-02  0.253E-02
  26.667  0.272E-02  0.272E-02
  26.677  0.291E-02  0.291E-02
  26.687  0.308E-02  0.308E-02
  26.697  0.324E-02  0.324E-02
  26.707  0.338E-02  0.338E-02
  26.717  0.350E-02  0.350E-02
  26.727  0.360E-02  0.360E-02
  26.737  0.367E-02  0.367E-02
  26.747  0.372E-02  0.372E-02
  26.757  0.375E-02  0.375E-02
  26.767  0.376E-02  0.376E-02
  26.777  0.374E-02  0.374E-02
  26.787  0.370E-02  0.370E-02
  26.797  0.365E-02  0.365E-02
  26.807  0.359E-02  0.359E-02
  26.817  0.351E-02  0.351E-02
  26.827  0.342E-02  0.342E-02
  26.837  0.332E-02  0.332E-02
  26.847  0.321E-02  0.321E-02
  26.857  0.310E-02  0.310E-02
  26.867  0.298E-02  0.298E-02
  26.877  0.286E-02  0.286E-02
  26.887  0.274E-02  0.274E-02
  26.897  0.261E-02  0.261E-02
  26.907  0.247E-02  0.247E-02
  26.917  0.234E-02  0.234E-02
  26.927  0.220E-02  0.220E-02
  26.937  0.206E-02  0.206E-02
  26.947  0.192E-02  0.192E-02
  26.957  0.179E-02  0.179E-02
  26.967  0.165E-02  0.165E-02
  26.977  0.152E-02  0.152E-02
  26.987  0.139E-02  0.139E-02
  26.997  0.127E-02  0.127E-02
  27.007  0.115E-02  0.115E-02
  27.017  0.105E-02  0.105E-02
  27.027  0.958E-03  0.958E-03
  27.037  0.878E-03  0.878E-03
  27.047  0.810E-03  0.810E-03
  27.057  0.757E-03  0.757E-03
  27.067  0.718E-03  0.718E-03
  27.077  0.693E-03  0.693E-03
  27.087  0.684E-03  0.684E-03
  27.097  0.689E-03  0.689E-03
  27.107  0.710E-03  0.710E-03
  27.117  0.744E-03  0.744E-03
  27.127  0.793E-03  0.793E-03
  27.137  0.854E-03  0.854E-03
  27.147  0.928E-03  0.928E-03
  27.157  0.101E-02  0.101E-02
  27.167  0.111E-02  0.111E-02
  27.177  0.121E-02  0.121E-02
  27.187  0.132E-02  0.132E-02
  27.197  0.144E-02  0.144E-02
  27.207  0.156E-02  0.156E-02
  27.217  0.168E-02  0.168E-02
  27.227  0.180E-02  0.180E-02
  27.237  0.191E-02  0.191E-02
  27.247  0.202E-02  0.202E-02
  27.257  0.211E-02  0.211E-02
  27.267  0.220E-02  0.220E-02
  27.277  0.227E-02  0.227E-02
  27.287  0.232E-02  0.232E-02
  27.297  0.235E-02  0.235E-02
  27.307  0.237E-02  0.237E-02
  27.317  0.237E-02  0.237E-02
  27.327  0.234E-02  0.234E-02
  27.337  0.230E-02  0.230E-02
  27.347  0.224E-02  0.224E-02
  27.357  0.217E-02  0.217E-02
  27.367  0.208E-02  0.208E-02
  27.377  0.199E-02  0.199E-02
  27.387  0.189E-02  0.189E-02
  27.397  0.179E-02  0.179E-02
  27.407  0.168E-02  0.168E-02
  27.417  0.159E-02  0.159E-02
  27.427  0.150E-02  0.150E-02
  27.437  0.141E-02  0.141E-02
  27.447  0.135E-02  0.135E-02
  27.457  0.129E-02  0.129E-02
  27.467  0.125E-02  0.125E-02
  27.477  0.122E-02  0.122E-02
  27.487  0.121E-02  0.121E-02
  27.497  0.121E-02  0.121E-02
  27.507  0.123E-02  0.123E-02
  27.517  0.125E-02  0.125E-02
  27.527  0.129E-02  0.129E-02
  27.537  0.133E-02  0.133E-02
  27.547  0.138E-02  0.138E-02
  27.557  0.143E-02  0.143E-02
  27.567  0.149E-02  0.149E-02
  27.577  0.154E-02  0.154E-02
  27.587  0.160E-02  0.160E-02
  27.597  0.165E-02  0.165E-02
  27.607  0.170E-02  0.170E-02
  27.617  0.175E-02  0.175E-02
  27.627  0.180E-02  0.180E-02
  27.637  0.185E-02  0.185E-02
  27.647  0.190E-02  0.190E-02
  27.657  0.195E-02  0.195E-02
  27.667  0.200E-02  0.200E-02
  27.677  0.205E-02  0.205E-02
  27.687  0.211E-02  0.211E-02
  27.697  0.216E-02  0.216E-02
  27.707  0.222E-02  0.222E-02
  27.717  0.227E-02  0.227E-02
  27.727  0.233E-02  0.233E-02
  27.737  0.238E-02  0.238E-02
  27.747  0.242E-02  0.242E-02
  27.757  0.245E-02  0.245E-02
  27.767  0.247E-02  0.247E-02
  27.777  0.248E-02  0.248E-02
  27.787  0.248E-02  0.248E-02
  27.797  0.246E-02  0.246E-02
  27.807  0.242E-02  0.242E-02
  27.817  0.236E-02  0.236E-02
  27.827  0.229E-02  0.229E-02
  27.837  0.220E-02  0.220E-02
  27.847  0.210E-02  0.210E-02
  27.857  0.198E-02  0.198E-02
  27.867  0.186E-02  0.186E-02
  27.877  0.172E-02  0.172E-02
  27.887  0.159E-02  0.159E-02
  27.897  0.144E-02  0.144E-02
  27.907  0.130E-02  0.130E-02
  27.917  0.116E-02  0.116E-02
  27.927  0.103E-02  0.103E-02
  27.937  0.905E-03  0.905E-03
  27.947  0.787E-03  0.787E-03
  27.957  0.678E-03  0.678E-03
  27.967  0.580E-03  0.580E-03
  27.977  0.492E-03  0.492E-03
  27.987  0.416E-03  0.416E-03
  27.997  0.351E-03  0.351E-03
  28.007  0.296E-03  0.296E-03
  28.017  0.252E-03  0.252E-03
  28.027  0.218E-03  0.218E-03
  28.037  0.193E-03  0.193E-03
  28.047  0.177E-03  0.177E-03
  28.057  0.170E-03  0.170E-03
  28.067  0.170E-03  0.170E-03
  28.077  0.178E-03  0.178E-03
  28.087  0.194E-03  0.194E-03
  28.097  0.215E-03  0.215E-03
  28.107  0.244E-03  0.244E-03
  28.117  0.278E-03  0.278E-03
  28.127  0.317E-03  0.317E-03
  28.137  0.362E-03  0.362E-03
  28.147  0.410E-03  0.410E-03
  28.157  0.461E-03  0.461E-03
  28.167  0.515E-03  0.515E-03
  28.177  0.569E-03  0.569E-03
  28.187  0.624E-03  0.624E-03
  28.197  0.677E-03  0.677E-03
  28.207  0.728E-03  0.728E-03
  28.217  0.775E-03  0.775E-03
  28.227  0.817E-03  0.817E-03
  28.237  0.854E-03  0.854E-03
  28.247  0.883E-03  0.883E-03
  28.257  0.905E-03  0.905E-03
  28.267  0.918E-03  0.918E-03
  28.277  0.923E-03  0.923E-03
  28.287  0.920E-03  0.920E-03
  28.297  0.908E-03  0.908E-03
  28.307  0.889E-03  0.889E-03
  28.317  0.863E-03  0.863E-03
  28.327  0.831E-03  0.831E-03
  28.337  0.794E-03  0.794E-03
  28.347  0.752E-03  0.752E-03
  28.357  0.708E-03  0.708E-03
  28.367  0.662E-03  0.662E-03
  28.377  0.616E-03  0.616E-03
  28.387  0.571E-03  0.571E-03
  28.397  0.527E-03  0.527E-03
  28.407  0.486E-03  0.486E-03
  28.417  0.449E-03  0.449E-03
  28.427  0.416E-03  0.416E-03
  28.437  0.388E-03  0.388E-03
  28.447  0.366E-03  0.366E-03
  28.457  0.349E-03  0.349E-03
  28.467  0.339E-03  0.339E-03
  28.477  0.335E-03  0.335E-03
  28.487  0.338E-03  0.338E-03
  28.497  0.347E-03  0.347E-03
  28.507  0.363E-03  0.363E-03
  28.517  0.385E-03  0.385E-03
  28.527  0.414E-03  0.414E-03
  28.537  0.447E-03  0.447E-03
  28.547  0.485E-03  0.485E-03
  28.557  0.528E-03  0.528E-03
  28.567  0.574E-03  0.574E-03
  28.577  0.622E-03  0.622E-03
  28.587  0.671E-03  0.671E-03
  28.597  0.720E-03  0.720E-03
  28.607  0.767E-03  0.767E-03
  28.617  0.812E-03  0.812E-03
  28.627  0.853E-03  0.853E-03
  28.637  0.889E-03  0.889E-03
  28.647  0.919E-03  0.919E-03
  28.657  0.942E-03  0.942E-03
  28.667  0.957E-03  0.957E-03
  28.677  0.964E-03  0.964E-03
  28.687  0.963E-03  0.963E-03
  28.697  0.954E-03  0.954E-03
  28.707  0.937E-03  0.937E-03
  28.717  0.913E-03  0.913E-03
  28.727  0.882E-03  0.882E-03
  28.737  0.846E-03  0.846E-03
  28.747  0.805E-03  0.805E-03
  28.757  0.760E-03  0.760E-03
  28.767  0.712E-03  0.712E-03
  28.777  0.664E-03  0.664E-03
  28.787  0.615E-03  0.615E-03
  28.797  0.567E-03  0.567E-03
  28.807  0.520E-03  0.520E-03
  28.817  0.477E-03  0.477E-03
  28.827  0.436E-03  0.436E-03
  28.837  0.400E-03  0.400E-03
  28.847  0.368E-03  0.368E-03
  28.857  0.341E-03  0.341E-03
  28.867  0.319E-03  0.319E-03
  28.877  0.302E-03  0.302E-03
  28.887  0.291E-03  0.291E-03
  28.897  0.284E-03  0.284E-03
  28.907  0.282E-03  0.282E-03
  28.917  0.286E-03  0.286E-03
  28.927  0.293E-03  0.293E-03
  28.937  0.304E-03  0.304E-03
  28.947  0.318E-03  0.318E-03
  28.957  0.335E-03  0.335E-03
  28.967  0.354E-03  0.354E-03
  28.977  0.374E-03  0.374E-03
  28.987  0.394E-03  0.394E-03
  28.997  0.414E-03  0.414E-03
  29.007  0.433E-03  0.433E-03
  29.017  0.451E-03  0.451E-03
  29.027  0.465E-03  0.465E-03
  29.037  0.477E-03  0.477E-03
  29.047  0.485E-03  0.485E-03
  29.057  0.489E-03  0.489E-03
  29.067  0.490E-03  0.490E-03
  29.077  0.486E-03  0.486E-03
  29.087  0.477E-03  0.477E-03
  29.097  0.465E-03  0.465E-03
  29.107  0.449E-03  0.449E-03
  29.117  0.429E-03  0.429E-03
  29.127  0.407E-03  0.407E-03
  29.137  0.382E-03  0.382E-03
  29.147  0.356E-03  0.356E-03
  29.157  0.328E-03  0.328E-03
  29.167  0.300E-03  0.300E-03
  29.177  0.272E-03  0.272E-03
  29.187  0.245E-03  0.245E-03
  29.197  0.219E-03  0.219E-03
  29.207  0.194E-03  0.194E-03
  29.217  0.172E-03  0.172E-03
  29.227  0.152E-03  0.152E-03
  29.237  0.135E-03  0.135E-03
  29.247  0.120E-03  0.120E-03
  29.257  0.108E-03  0.108E-03
  29.267  0.100E-03  0.100E-03
  29.277  0.946E-04  0.946E-04
  29.287  0.923E-04  0.923E-04
  29.297  0.930E-04  0.930E-04
  29.307  0.966E-04  0.966E-04
  29.317  0.103E-03  0.103E-03
  29.327  0.112E-03  0.112E-03
  29.337  0.124E-03  0.124E-03
  29.347  0.137E-03  0.137E-03
  29.357  0.153E-03  0.153E-03
  29.367  0.170E-03  0.170E-03
  29.377  0.188E-03  0.188E-03
  29.387  0.207E-03  0.207E-03
  29.397  0.227E-03  0.227E-03
  29.407  0.247E-03  0.247E-03
  29.417  0.266E-03  0.266E-03
  29.427  0.285E-03  0.285E-03
  29.437  0.304E-03  0.304E-03
  29.447  0.322E-03  0.322E-03
  29.457  0.340E-03  0.340E-03
  29.467  0.358E-03  0.358E-03
  29.477  0.376E-03  0.376E-03
  29.487  0.394E-03  0.394E-03
  29.497  0.414E-03  0.414E-03
  29.507  0.436E-03  0.436E-03
  29.517  0.462E-03  0.462E-03
  29.527  0.491E-03  0.491E-03
  29.537  0.524E-03  0.524E-03
  29.547  0.563E-03  0.563E-03
  29.557  0.608E-03  0.608E-03
  29.567  0.659E-03  0.659E-03
  29.577  0.717E-03  0.717E-03
  29.587  0.780E-03  0.780E-03
  29.597  0.849E-03  0.849E-03
  29.607  0.923E-03  0.923E-03
  29.617  0.999E-03  0.999E-03
  29.627  0.108E-02  0.108E-02
  29.637  0.116E-02  0.116E-02
  29.647  0.123E-02  0.123E-02
  29.657  0.130E-02  0.130E-02
  29.667  0.137E-02  0.137E-02
  29.677  0.143E-02  0.143E-02
  29.687  0.147E-02  0.147E-02
  29.697  0.151E-02  0.151E-02
  29.707  0.153E-02  0.153E-02
  29.717  0.153E-02  0.153E-02
  29.727  0.153E-02  0.153E-02
  29.737  0.150E-02  0.150E-02
  29.747  0.147E-02  0.147E-02
  29.757  0.142E-02  0.142E-02
  29.767  0.136E-02  0.136E-02
  29.777  0.129E-02  0.129E-02
  29.787  0.121E-02  0.121E-02
  29.797  0.112E-02  0.112E-02
  29.807  0.103E-02  0.103E-02
  29.817  0.944E-03  0.944E-03
  29.827  0.853E-03  0.853E-03
  29.837  0.764E-03  0.764E-03
  29.847  0.678E-03  0.678E-03
  29.857  0.596E-03  0.596E-03
  29.867  0.520E-03  0.520E-03
  29.877  0.449E-03  0.449E-03
  29.887  0.385E-03  0.385E-03
  29.897  0.328E-03  0.328E-03
  29.907  0.277E-03  0.277E-03
  29.917  0.233E-03  0.233E-03
  29.927  0.194E-03  0.194E-03
  29.937  0.162E-03  0.162E-03
  29.947  0.135E-03  0.135E-03
  29.957  0.112E-03  0.112E-03
  29.967  0.941E-04  0.941E-04
  29.977  0.797E-04  0.797E-04
  29.987  0.687E-04  0.687E-04
  29.997  0.605E-04  0.605E-04
  30.007  0.548E-04  0.548E-04
  30.017  0.512E-04  0.512E-04
  30.027  0.493E-04  0.493E-04
  30.037  0.487E-04  0.487E-04
  30.047  0.493E-04  0.493E-04
  30.057  0.507E-04  0.507E-04
  30.067  0.527E-04  0.527E-04
  30.077  0.550E-04  0.550E-04
  30.087  0.576E-04  0.576E-04
  30.097  0.601E-04  0.601E-04
  30.107  0.624E-04  0.624E-04
  30.117  0.645E-04  0.645E-04
  30.127  0.661E-04  0.661E-04
  30.137  0.672E-04  0.672E-04
  30.147  0.677E-04  0.677E-04
  30.157  0.676E-04  0.676E-04
  30.167  0.669E-04  0.669E-04
  30.177  0.655E-04  0.655E-04
  30.187  0.636E-04  0.636E-04
  30.197  0.611E-04  0.611E-04
  30.207  0.581E-04  0.581E-04
  30.217  0.547E-04  0.547E-04
  30.227  0.510E-04  0.510E-04
  30.237  0.470E-04  0.470E-04
  30.247  0.430E-04  0.430E-04
  30.257  0.389E-04  0.389E-04
  30.267  0.348E-04  0.348E-04
  30.277  0.309E-04  0.309E-04
  30.287  0.271E-04  0.271E-04
  30.297  0.236E-04  0.236E-04
  30.307  0.203E-04  0.203E-04
  30.317  0.173E-04  0.173E-04
  30.327  0.147E-04  0.147E-04
  30.337  0.123E-04  0.123E-04
  30.347  0.103E-04  0.103E-04
  30.357  0.853E-05  0.853E-05
  30.367  0.708E-05  0.708E-05
  30.377  0.592E-05  0.592E-05
  30.387  0.503E-05  0.503E-05
  30.397  0.439E-05  0.439E-05
  30.407  0.400E-05  0.400E-05
  30.417  0.385E-05  0.385E-05
  30.427  0.396E-05  0.396E-05
  30.437  0.432E-05  0.432E-05
  30.447  0.495E-05  0.495E-05
  30.457  0.587E-05  0.587E-05
  30.467  0.710E-05  0.710E-05
  30.477  0.867E-05  0.867E-05
  30.487  0.106E-04  0.106E-04
  30.497  0.129E-04  0.129E-04
  30.507  0.156E-04  0.156E-04
  30.517  0.188E-04  0.188E-04
  30.527  0.223E-04  0.223E-04
  30.537  0.263E-04  0.263E-04
  30.547  0.307E-04  0.307E-04
  30.557  0.355E-04  0.355E-04
  30.567  0.405E-04  0.405E-04
  30.577  0.458E-04  0.458E-04
  30.587  0.511E-04  0.511E-04
  30.597  0.566E-04  0.566E-04
  30.607  0.619E-04  0.619E-04
  30.617  0.670E-04  0.670E-04
  30.627  0.717E-04  0.717E-04
  30.637  0.760E-04  0.760E-04
  30.647  0.796E-04  0.796E-04
  30.657  0.825E-04  0.825E-04
  30.667  0.847E-04  0.847E-04
  30.677  0.859E-04  0.859E-04
  30.687  0.862E-04  0.862E-04
  30.697  0.856E-04  0.856E-04
  30.707  0.840E-04  0.840E-04
  30.717  0.817E-04  0.817E-04
  30.727  0.785E-04  0.785E-04
  30.737  0.746E-04  0.746E-04
  30.747  0.702E-04  0.702E-04
  30.757  0.653E-04  0.653E-04
  30.767  0.601E-04  0.601E-04
  30.777  0.548E-04  0.548E-04
  30.787  0.493E-04  0.493E-04
  30.797  0.440E-04  0.440E-04
  30.807  0.388E-04  0.388E-04
  30.817  0.338E-04  0.338E-04
  30.827  0.292E-04  0.292E-04
  30.837  0.250E-04  0.250E-04
  30.847  0.211E-04  0.211E-04
  30.857  0.177E-04  0.177E-04
  30.867  0.148E-04  0.148E-04
  30.877  0.122E-04  0.122E-04
  30.887  0.100E-04  0.100E-04
  30.897  0.826E-05  0.826E-05
  30.907  0.683E-05  0.683E-05
  30.917  0.573E-05  0.573E-05
  30.927  0.492E-05  0.492E-05
  30.937  0.437E-05  0.437E-05
  30.947  0.406E-05  0.406E-05
  30.957  0.395E-05  0.395E-05
  30.967  0.403E-05  0.403E-05
  30.977  0.428E-05  0.428E-05
  30.987  0.467E-05  0.467E-05
  30.997  0.518E-05  0.518E-05
  31.007  0.580E-05  0.580E-05
  31.017  0.651E-05  0.651E-05
  31.027  0.729E-05  0.729E-05
  31.037  0.811E-05  0.811E-05
  31.047  0.895E-05  0.895E-05
  31.057  0.980E-05  0.980E-05
  31.067  0.106E-04  0.106E-04
  31.077  0.114E-04  0.114E-04
  31.087  0.121E-04  0.121E-04
  31.097  0.127E-04  0.127E-04
  31.107  0.133E-04  0.133E-04
  31.117  0.137E-04  0.137E-04
  31.127  0.139E-04  0.139E-04
  31.137  0.141E-04  0.141E-04
  31.147  0.141E-04  0.141E-04
  31.157  0.139E-04  0.139E-04
  31.167  0.137E-04  0.137E-04
  31.177  0.134E-04  0.134E-04
  31.187  0.130E-04  0.130E-04
  31.197  0.126E-04  0.126E-04
  31.207  0.122E-04  0.122E-04
  31.217  0.118E-04  0.118E-04
  31.227  0.116E-04  0.116E-04
  31.237  0.116E-04  0.116E-04
  31.247  0.118E-04  0.118E-04
  31.257  0.123E-04  0.123E-04
  31.267  0.132E-04  0.132E-04
  31.277  0.145E-04  0.145E-04
  31.287  0.164E-04  0.164E-04
  31.297  0.188E-04  0.188E-04
  31.307  0.219E-04  0.219E-04
  31.317  0.257E-04  0.257E-04
  31.327  0.303E-04  0.303E-04
  31.337  0.356E-04  0.356E-04
  31.347  0.418E-04  0.418E-04
  31.357  0.486E-04  0.486E-04
  31.367  0.562E-04  0.562E-04
  31.377  0.644E-04  0.644E-04
  31.387  0.731E-04  0.731E-04
  31.397  0.822E-04  0.822E-04
  31.407  0.915E-04  0.915E-04
  31.417  0.101E-03  0.101E-03
  31.427  0.110E-03  0.110E-03
  31.437  0.119E-03  0.119E-03
  31.447  0.127E-03  0.127E-03
  31.457  0.134E-03  0.134E-03
  31.467  0.140E-03  0.140E-03
  31.477  0.144E-03  0.144E-03
  31.487  0.148E-03  0.148E-03
  31.497  0.149E-03  0.149E-03
  31.507  0.149E-03  0.149E-03
  31.517  0.148E-03  0.148E-03
  31.527  0.145E-03  0.145E-03
  31.537  0.140E-03  0.140E-03
  31.547  0.134E-03  0.134E-03
  31.557  0.127E-03  0.127E-03
  31.567  0.120E-03  0.120E-03
  31.577  0.111E-03  0.111E-03
  31.587  0.102E-03  0.102E-03
  31.597  0.924E-04  0.924E-04
  31.607  0.830E-04  0.830E-04
  31.617  0.738E-04  0.738E-04
  31.627  0.648E-04  0.648E-04
  31.637  0.564E-04  0.564E-04
  31.647  0.485E-04  0.485E-04
  31.657  0.413E-04  0.413E-04
  31.667  0.347E-04  0.347E-04
  31.677  0.289E-04  0.289E-04
  31.687  0.238E-04  0.238E-04
  31.697  0.194E-04  0.194E-04
  31.707  0.157E-04  0.157E-04
  31.717  0.125E-04  0.125E-04
  31.727  0.985E-05  0.985E-05
  31.737  0.769E-05  0.769E-05
  31.747  0.594E-05  0.594E-05
  31.757  0.454E-05  0.454E-05
  31.767  0.343E-05  0.343E-05
  31.777  0.256E-05  0.256E-05
  31.787  0.189E-05  0.189E-05
  31.797  0.139E-05  0.139E-05
  31.807  0.100E-05  0.100E-05
  31.817  0.718E-06  0.718E-06
  31.827  0.508E-06  0.508E-06
  31.837  0.356E-06  0.356E-06
  31.847  0.247E-06  0.247E-06
  31.857  0.169E-06  0.169E-06
  31.867  0.115E-06  0.115E-06
  31.877  0.770E-07  0.770E-07
  31.887  0.511E-07  0.511E-07
  31.897  0.336E-07  0.336E-07
  31.907  0.218E-07  0.218E-07
  31.917  0.140E-07  0.140E-07
